time (s)	coil I (A)	last det (V)	int current (uC)
7960.762859	1.044811	0.138319	471.209656
7960.763725	1.476522	0.138319	1749.877930
7960.764835	1.468162	0.138319	3379.537109
7960.765835	1.429669	0.138319	4809.206543
7960.766718	1.395615	0.138319	6041.534668
7960.767713	1.359540	0.138319	7394.276855
7960.768778	1.322267	0.138319	8802.491211
7960.769673	1.291025	0.138319	9957.958984
7960.770538	1.261776	0.138319	11049.395508
7960.771636	1.229063	0.138319	12398.906250
7960.772604	1.199626	0.138319	13560.144531
7960.773466	1.173948	0.138319	14572.087891
7960.774520	1.143519	0.138319	15777.357422
7960.775576	1.119551	0.138319	16959.603516
7960.776461	1.097131	0.138319	17930.564453
7960.777398	0.786617	0.138319	18667.625000
7960.778496	0.107710	0.138319	18785.890625
7960.779429	0.097412	0.138319	18876.775391
7960.780293	0.097379	0.138319	18960.910156
7960.781352	0.097496	0.138319	19064.158203
7960.782365	0.097430	0.138319	19162.855469
7960.783256	0.097463	0.138319	19249.695312
7960.784221	0.097518	0.138319	19343.800781
7960.785282	0.097324	0.138319	19447.062500
7960.786201	0.097310	0.138319	19536.490234
7960.787063	0.097412	0.138319	19620.458984
7961.761802	1.066249	0.176173	532.058167
7961.762732	1.481832	0.176173	1910.162109
7961.763614	1.472402	0.176173	3208.820801
7961.764597	1.435371	0.176173	4619.790527
7961.765630	1.395297	0.176173	6061.131836
7961.766521	1.362067	0.176173	7274.733398
7961.767390	1.330335	0.176173	8430.793945
7961.768470	1.295101	0.176173	9829.502930
7961.769395	1.264211	0.176173	10998.898437
7961.770271	1.236793	0.176173	12082.329102
7961.771257	1.207423	0.176173	13272.848633
7961.772283	1.176493	0.176173	14479.930664
7961.773159	1.150664	0.176173	15487.912109
7961.774145	1.126425	0.176173	16598.566406
7961.775217	1.100973	0.176173	17778.808594
7961.776130	0.974407	0.176173	18668.441406
7961.777001	0.179513	0.176173	18824.796875
7961.778094	0.097383	0.176173	18931.236328
7961.779095	0.097419	0.176173	19028.753906
7961.779988	0.097478	0.176173	19115.802734
7961.780970	0.097526	0.176173	19211.572266
7961.782027	0.097460	0.176173	19314.587891
7961.782919	0.097397	0.176173	19401.466797
7961.783783	0.097474	0.176173	19485.685547
7961.784904	0.097584	0.176173	19595.078125
7961.785862	0.097438	0.176173	19688.423828
7962.836922	1.013474	0.137207	429.713013
7962.838034	1.483594	0.137207	2079.469238
7962.839011	1.465126	0.137207	3510.896973
7962.839897	1.430914	0.137207	4778.687012
7962.840894	1.392953	0.137207	6167.460937
7962.841953	1.354863	0.137207	7602.261230
7962.842848	1.322197	0.137207	8785.627930
7962.843736	1.291425	0.137207	9932.413086
7962.844828	1.256957	0.137207	11305.009766
7962.845785	1.227378	0.137207	12479.610352
7962.846652	1.200941	0.137207	13520.826172
7962.847711	1.169733	0.137207	14759.573242
7962.848753	1.139971	0.137207	15947.422852
7962.849640	1.120020	0.137207	16940.880859
7962.850589	1.096549	0.137207	17981.505859
7962.851658	0.671931	0.137207	18699.800781
7962.852590	0.105260	0.137207	18797.902344
7962.853446	0.097434	0.137207	18881.306641
7962.854502	0.097467	0.137207	18984.232422
7962.855526	0.097397	0.137207	19083.966797
7962.856400	0.097452	0.137207	19169.140625
7962.857310	0.097401	0.137207	19257.775391
7962.858184	0.097419	0.137207	19342.919922
7962.859185	0.097430	0.137207	19440.447266
7962.860110	0.097372	0.137207	19530.515625
7962.860987	0.097427	0.137207	19615.958984
7963.828708	1.037849	0.180624	481.561981
7963.829582	1.477035	0.180624	1772.490479
7963.830555	1.472391	0.180624	3205.127441
7963.831613	1.432039	0.180624	4720.224121
7963.832542	1.395692	0.180624	6016.822266
7963.833408	1.363330	0.180624	7197.466309
7963.834503	1.325394	0.180624	8648.773437
7963.835509	1.291263	0.180624	9947.784180
7963.836409	1.262036	0.180624	11083.617187
7963.837413	1.231161	0.180624	12319.703125
7963.838448	1.199546	0.180624	13561.233398
7963.839341	1.172834	0.180624	14608.574219
7963.840212	1.146650	0.180624	15607.306641
7963.841330	1.121074	0.180624	16860.667969
7963.842294	1.097596	0.180624	17918.750000
7963.843156	0.914432	0.180624	18706.990234
7963.844233	0.123073	0.180624	18839.539062
7963.845267	0.097485	0.180624	18940.339844
7963.846143	0.097408	0.180624	19025.669922
7963.847079	0.097551	0.180624	19116.978516
7963.848130	0.097533	0.180624	19219.486328
7963.849064	0.097474	0.180624	19310.527344
7963.849924	0.097529	0.180624	19394.402344
7963.850952	0.097566	0.180624	19494.699219
7963.851971	0.097460	0.180624	19594.009766
7963.852854	0.097507	0.180624	19680.109375
7964.909514	1.005817	0.135181	432.501190
7964.910486	1.475186	0.135181	1866.381714
7964.911551	1.466949	0.135181	3428.682861
7964.912468	1.431507	0.135181	4741.375000
7964.913330	1.396934	0.135181	5945.531738
7964.914415	1.358189	0.135181	7419.166016
7964.915421	1.322443	0.135181	8749.542969
7964.916311	1.292325	0.135181	9899.712891
7964.917327	1.260117	0.135181	11179.992187
7964.918380	1.227198	0.135181	12472.232422
7964.919261	1.199941	0.135181	13529.380859
7964.920130	1.172651	0.135181	14548.415039
7964.921241	1.141941	0.135181	15817.111328
7964.922217	1.120093	0.135181	16910.322266
7964.923092	1.098274	0.135181	17871.312500
7964.924121	0.770885	0.135181	18664.552734
7964.925159	0.107377	0.135181	18776.009766
7964.926050	0.097489	0.135181	18862.873047
7964.926977	0.097496	0.135181	18953.251953
7964.928041	0.097456	0.135181	19056.945312
7964.928979	0.097456	0.135181	19148.359375
7964.929842	0.097529	0.135181	19232.527344
7964.930924	0.097592	0.135181	19338.121094
7964.931936	0.097471	0.135181	19436.761719
7964.932824	0.097544	0.135181	19523.380859
7964.933790	0.097694	0.135181	19617.753906
7965.897659	1.015968	0.177688	428.738495
7965.898706	1.483033	0.177688	1981.474487
7965.899601	1.470315	0.177688	3297.406250
7965.900482	1.436638	0.177688	4563.084473
7965.901484	1.398640	0.177688	5964.521973
7965.902416	1.363173	0.177688	7234.999023
7965.903343	1.330822	0.177688	8468.670898
7965.904216	1.299393	0.177688	9603.041016
7965.905273	1.266185	0.177688	10941.398437
7965.906156	1.238320	0.177688	12034.834961
7965.907030	1.211598	0.177688	13093.771484
7965.908035	1.182052	0.177688	14281.733398
7965.908960	1.154645	0.177688	15349.780273
7965.909835	1.130709	0.177688	16339.150391
7965.910803	1.110205	0.177688	17413.828125
7965.911841	1.076122	0.177688	18530.841797
7965.912742	0.303992	0.177688	18804.738281
7965.913605	0.098104	0.177688	18889.402344
7965.914680	0.097595	0.177688	18994.316406
7965.915626	0.097412	0.177688	19086.468750
7965.916499	0.097416	0.177688	19171.513672
7965.917453	0.097643	0.177688	19264.664062
7965.918484	0.097471	0.177688	19365.156250
7965.919362	0.097478	0.177688	19450.742187
7965.920222	0.097518	0.177688	19534.607422
7965.921284	0.097500	0.177688	19638.152344
7966.979524	0.996844	0.140913	424.655731
7966.980544	1.479115	0.140913	1933.352905
7966.981593	1.466188	0.140913	3471.383789
7966.982475	1.431654	0.140913	4734.102539
7966.983396	1.396029	0.140913	6019.845215
7966.984473	1.356632	0.140913	7480.937988
7966.985421	1.322889	0.140913	8735.037109
7966.986286	1.293450	0.140913	9853.871094
7966.987325	1.260242	0.140913	11163.262695
7966.988361	1.227894	0.140913	12435.361328
7966.989247	1.200674	0.140913	13499.158203
7966.990213	1.172172	0.140913	14631.475586
7966.991294	1.141443	0.140913	15865.375000
7966.992208	1.120225	0.140913	16889.259766
7966.993078	1.098278	0.140913	17844.761719
7966.994148	0.756412	0.140913	18654.123047
7966.995161	0.106315	0.140913	18761.820312
7966.996043	0.097394	0.140913	18847.720703
7966.997037	0.097526	0.140913	18944.662109
7966.998093	0.097584	0.140913	19047.710937
7966.998998	0.097496	0.140913	19135.945312
7966.999862	0.097489	0.140913	19220.175781
7967.000973	0.097562	0.140913	19328.568359
7967.001948	0.097430	0.140913	19423.562500
7967.002813	0.097445	0.140913	19507.851562
7967.003907	0.097628	0.140913	19614.656250
7967.970857	1.086390	0.178969	563.836609
7967.971825	1.483656	0.178969	2000.015625
7967.972697	1.469875	0.178969	3281.747070
7967.973706	1.431127	0.178969	4725.753906
7967.974770	1.391268	0.178969	6206.063477
7967.975665	1.357386	0.178969	7420.924316
7967.976562	1.324611	0.178969	8609.099609
7967.977670	1.288356	0.178969	10036.597656
7967.978628	1.257422	0.178969	11241.208008
7967.979503	1.230220	0.178969	12317.650391
7967.980544	1.198641	0.178969	13565.436523
7967.981567	1.168572	0.178969	14760.885742
7967.982461	1.142842	0.178969	15782.585937
7967.983401	1.120822	0.178969	16836.158203
7967.984479	1.094447	0.178969	18015.972656
7967.985428	0.743654	0.178969	18721.699219
7967.986287	0.114514	0.178969	18820.066406
7967.987359	0.097474	0.178969	18924.558594
7967.988352	0.097390	0.178969	19021.267578
7967.989234	0.097423	0.178969	19107.195312
7967.990212	0.097639	0.178969	19202.685547
7967.991251	0.097570	0.178969	19304.060547
7967.992157	0.097430	0.178969	19392.332031
7967.993016	0.097537	0.178969	19476.115234
7967.994100	0.097584	0.178969	19581.896484
7967.995096	0.097434	0.178969	19678.941406
7969.044489	1.061928	0.146923	534.149536
7969.045396	1.480521	0.146923	1876.982300
7969.046274	1.472692	0.146923	3170.005615
7969.047269	1.435507	0.146923	4598.334961
7969.048278	1.395989	0.146923	6006.887695
7969.049166	1.363191	0.146923	7217.401367
7969.050027	1.331741	0.146923	8364.030273
7969.051120	1.295841	0.146923	9780.384766
7969.052035	1.265288	0.146923	10938.123047
7969.052907	1.237928	0.146923	12017.596680
7969.053874	1.208485	0.146923	13186.202148
7969.054896	1.177819	0.146923	14389.932617
7969.055793	1.152041	0.146923	15423.313477
7969.056787	1.127051	0.146923	16543.601562
7969.057852	1.101980	0.146923	17717.210937
7969.058774	1.003627	0.146923	18642.554687
7969.059639	0.198695	0.146923	18814.425781
7969.060740	0.097529	0.146923	18921.804687
7969.061734	0.097397	0.146923	19018.617187
7969.062631	0.097452	0.146923	19106.031250
7969.063627	0.097562	0.146923	19203.203125
7969.064676	0.097412	0.146923	19305.388672
7969.065566	0.097467	0.146923	19392.134766
7969.066429	0.097456	0.146923	19476.240234
7969.067531	0.097548	0.146923	19583.738281
7969.068487	0.097434	0.146923	19676.884766
7970.045384	1.016971	0.183923	444.416534
7970.046259	1.474592	0.183923	1734.684692
7970.047122	1.474578	0.183923	3007.245117
7970.048196	1.436140	0.183923	4549.659668
7970.049092	1.401083	0.183923	5805.029785
7970.049960	1.367670	0.183923	6992.166992
7970.051065	1.330415	0.183923	8462.275391
7970.051981	1.298357	0.183923	9651.570312
7970.052862	1.270210	0.183923	10770.625000
7970.053873	1.238650	0.183923	12022.900391
7970.054889	1.206962	0.183923	13249.173828
7970.055777	1.180250	0.183923	14297.236328
7970.056639	1.154224	0.183923	15292.176758
7970.057743	1.127377	0.183923	16536.800781
7970.058635	1.106184	0.183923	17523.517578
7970.059516	1.083314	0.183923	18477.917969
7970.060515	0.311569	0.183923	18789.175781
7970.061517	0.097317	0.183923	18886.687500
7970.062405	0.097515	0.183923	18973.281250
7970.063376	0.097566	0.183923	19068.017578
7970.064443	0.097467	0.183923	19172.015625
7970.065349	0.097489	0.183923	19260.339844
7970.066212	0.097559	0.183923	19344.533203
7970.067310	0.097577	0.183923	19451.671875
7970.068280	0.097449	0.183923	19546.197266
7970.069162	0.097365	0.183923	19632.072266
7971.107857	1.066853	0.149795	534.493347
7971.108734	1.479232	0.149795	1831.780029
7971.109663	1.471230	0.149795	3198.553223
7971.110750	1.430636	0.149795	4753.654785
7971.111686	1.394282	0.149795	6058.703125
7971.112550	1.362154	0.149795	7235.604492
7971.113594	1.325251	0.149795	8619.166992
7971.114638	1.289861	0.149795	9965.781250
7971.115534	1.260828	0.149795	11095.482422
7971.116507	1.230853	0.149795	12293.102539
7971.117578	1.198121	0.149795	13576.290039
7971.118501	1.170817	0.149795	14656.954102
7971.119368	1.145013	0.149795	15649.680664
7971.120472	1.119972	0.149795	16886.128906
7971.121471	1.094923	0.149795	17979.957031
7971.122373	0.816456	0.149795	18716.400391
7971.123364	0.118993	0.149795	18834.322266
7971.124413	0.097401	0.149795	18936.496094
7971.125307	0.097438	0.149795	19023.605469
7971.126168	0.097533	0.149795	19107.582031
7971.127259	0.097610	0.149795	19214.074219
7971.128217	0.097482	0.149795	19307.460937
7971.129076	0.097559	0.149795	19391.263672
7971.130158	0.097614	0.149795	19496.880859
7971.131189	0.097463	0.149795	19597.365234
7971.132066	0.097463	0.149795	19682.839844
7972.121081	1.047535	0.179516	512.244812
7972.121965	1.478533	0.179516	1819.267578
7972.122896	1.472106	0.179516	3189.797852
7972.123951	1.431753	0.179516	4700.297363
7972.124908	1.395117	0.179516	6035.424316
7972.125777	1.362616	0.179516	7219.537598
7972.126854	1.324962	0.179516	8646.521484
7972.127868	1.290721	0.179516	9955.312500
7972.128748	1.261802	0.179516	11065.698242
7972.129727	1.231963	0.179516	12271.790039
7972.130795	1.199348	0.179516	13552.694336
7972.131711	1.171919	0.179516	14626.171875
7972.132575	1.146284	0.179516	15616.561523
7972.133649	1.121441	0.179516	16820.988281
7972.134651	1.096882	0.179516	17920.064453
7972.135526	0.888867	0.179516	18697.822266
7972.136519	0.135403	0.179516	18832.277344
7972.137564	0.097500	0.179516	18934.164062
7972.138463	0.097467	0.179516	19021.787109
7972.139329	0.097452	0.179516	19106.181641
7972.140430	0.097533	0.179516	19213.566406
7972.141398	0.097471	0.179516	19307.917969
7972.142278	0.097489	0.179516	19393.708984
7972.143278	0.097646	0.179516	19491.355469
7972.144327	0.097463	0.179516	19593.593750
7972.145217	0.097430	0.179516	19680.306641
7973.176246	0.990073	0.148982	415.830780
7973.177234	1.474354	0.148982	1872.492798
7973.178197	1.469344	0.148982	3287.471680
7973.179129	1.434097	0.148982	4624.049805
7973.179997	1.400167	0.148982	5839.395020
7973.181040	1.361748	0.148982	7259.698242
7973.181922	1.330023	0.148982	8432.778320
7973.182800	1.300342	0.148982	9574.478516
7973.183766	1.269060	0.148982	10800.390625
7973.184760	1.237606	0.148982	12030.571289
7973.185687	1.209514	0.148982	13151.791016
7973.186552	1.183026	0.148982	14175.108398
7973.187573	1.153737	0.148982	15353.073242
7973.188477	1.129391	0.148982	16374.042969
7973.189349	1.110765	0.148982	17342.630859
7973.190386	1.069600	0.148982	18451.804687
7973.191372	0.276244	0.148982	18724.181641
7973.192246	0.097595	0.148982	18809.480469
7973.193123	0.097482	0.148982	18894.972656
7973.194241	0.097445	0.148982	19003.916016
7973.195126	0.097368	0.148982	19090.085937
7973.195984	0.097452	0.148982	19173.699219
7973.197035	0.097529	0.148982	19276.203125
7973.198011	0.097408	0.148982	19371.273437
7973.198884	0.097350	0.148982	19456.259766
7973.199740	0.097386	0.148982	19539.623047
7974.190094	1.067399	0.175198	540.103699
7974.191094	1.482737	0.175198	2022.840576
7974.191995	1.467334	0.175198	3344.908447
7974.192973	1.430131	0.175198	4743.576172
7974.194031	1.389888	0.175198	6214.077148
7974.194949	1.355438	0.175198	7458.369141
7974.195818	1.324208	0.175198	8609.105469
7974.196927	1.287711	0.175198	10037.177734
7974.197901	1.255902	0.175198	11260.426758
7974.198832	1.227166	0.175198	12402.917969
7974.199711	1.200659	0.175198	13458.296875
7974.200743	1.170608	0.175198	14666.364258
7974.201650	1.143538	0.175198	15703.552734
7974.202577	1.122301	0.175198	16743.925781
7974.203439	1.100380	0.175198	17692.453125
7974.204465	0.911572	0.175198	18627.726562
7974.205365	0.149956	0.175198	18762.687500
7974.206243	0.097324	0.175198	18848.138672
7974.207235	0.097383	0.175198	18944.742187
7974.208178	0.097438	0.175198	19036.626953
7974.209098	0.097379	0.175198	19126.214844
7974.209959	0.097375	0.175198	19210.054687
7974.210994	0.097412	0.175198	19310.876953
7974.211883	0.097299	0.175198	19397.375000
7974.212757	0.097401	0.175198	19482.503906
7974.213734	0.097573	0.175198	19577.832031
7975.249447	1.067303	0.146130	571.007324
7975.250534	1.483953	0.146130	2184.063965
7975.251438	1.463522	0.146130	3507.087646
7975.252311	1.428834	0.146130	4754.459961
7975.253392	1.388207	0.146130	6255.111328
7975.254399	1.350989	0.146130	7615.557129
7975.255303	1.320190	0.146130	8809.009766
7975.256308	1.285975	0.146130	10101.415039
7975.257369	1.252291	0.146130	11430.095703
7975.258266	1.224313	0.146130	12528.304687
7975.259154	1.196594	0.146130	13590.880859
7975.260261	1.164804	0.146130	14880.318359
7975.261212	1.137854	0.146130	15962.417969
7975.262083	1.119005	0.146130	16937.072266
7975.263139	1.092198	0.146130	18090.433594
7975.264173	0.570293	0.146130	18680.117187
7975.265068	0.101616	0.146130	18771.064453
7975.266028	0.097445	0.146130	18864.611328
7975.267067	0.097610	0.146130	18966.027344
7975.267998	0.097416	0.146130	19056.720703
7975.268860	0.097386	0.146130	19140.667969
7975.269915	0.097485	0.146130	19243.515625
7975.270928	0.097555	0.146130	19342.337891
7975.271805	0.097412	0.146130	19427.767578
7975.272779	0.097584	0.146130	19522.814453
7975.273832	0.097573	0.146130	19625.558594
7976.255424	0.995072	0.178666	420.915466
7976.256394	1.473208	0.178666	1849.927246
7976.257408	1.468261	0.178666	3338.743408
7976.258295	1.434181	0.178666	4610.861816
7976.259157	1.400270	0.178666	5817.894531
7976.260200	1.361653	0.178666	7238.098633
7976.261152	1.328357	0.178666	8502.694336
7976.262027	1.298723	0.178666	9639.077148
7976.263062	1.264149	0.178666	10947.471680
7976.264099	1.231860	0.178666	12224.911133
7976.264998	1.204592	0.178666	13307.839844
7976.265944	1.176910	0.178666	14421.197266
7976.267006	1.146130	0.178666	15638.387695
7976.267945	1.123502	0.178666	16693.355469
7976.268813	1.102540	0.178666	17650.361328
7976.269897	0.887161	0.178666	18612.042969
7976.270903	0.123732	0.178666	18736.517578
7976.271795	0.097346	0.178666	18823.349609
7976.272781	0.097482	0.178666	18919.466797
7976.273830	0.097482	0.178666	19021.724609
7976.274740	0.097401	0.178666	19110.359375
7976.275600	0.097478	0.178666	19194.191406
7976.276699	0.097474	0.178666	19301.316406
7976.277693	0.097386	0.178666	19398.119141
7976.278563	0.097438	0.178666	19482.890625
7976.279583	0.097515	0.178666	19582.355469
7977.323543	1.073932	0.146968	545.557434
7977.324479	1.481506	0.146968	1932.247314
7977.325343	1.470641	0.146968	3202.881104
7977.326424	1.430006	0.146968	4748.717773
7977.327451	1.390587	0.146968	6176.850586
7977.328329	1.357775	0.146968	7368.976562
7977.329305	1.324182	0.146968	8661.377930
7977.330358	1.288348	0.146968	10018.008789
7977.331274	1.258418	0.146968	11170.719727
7977.332144	1.230465	0.146968	12241.224609
7977.333249	1.197858	0.146968	13564.857422
7977.334225	1.168854	0.146968	14705.658203
7977.335111	1.143838	0.146968	15719.098633
7977.336122	1.120452	0.146968	16851.875000
7977.337180	1.094634	0.146968	18009.998047
7977.338077	0.792356	0.146968	18720.742187
7977.338973	0.120300	0.146968	18828.531250
7977.340062	0.097504	0.146968	18934.712891
7977.341013	0.097419	0.146968	19027.359375
7977.341875	0.097478	0.146968	19111.384766
7977.342906	0.097533	0.146968	19211.941406
7977.343929	0.097430	0.146968	19311.613281
7977.344804	0.097489	0.146968	19396.916016
7977.345727	0.097485	0.146968	19486.894531
7977.346803	0.097511	0.146968	19591.816406
7977.347740	0.097405	0.146968	19683.083984
7978.321348	1.000876	0.186099	432.378601
7978.322271	1.472626	0.186099	1791.612061
7978.323354	1.466444	0.186099	3379.770996
7978.324294	1.430522	0.186099	4724.461914
7978.325161	1.396450	0.186099	5935.184570
7978.326225	1.358361	0.186099	7380.480469
7978.327255	1.322113	0.186099	8742.256836
7978.328130	1.291791	0.186099	9872.574219
7978.329087	1.260941	0.186099	11079.294922
7978.330172	1.227356	0.186099	12410.976562
7978.331090	1.198843	0.186099	13511.513672
7978.331963	1.172509	0.186099	14535.113281
7978.333032	1.142238	0.186099	15756.165039
7978.334037	1.119452	0.186099	16881.214844
7978.334932	1.097424	0.186099	17863.410156
7978.335922	0.801299	0.186099	18656.695312
7978.336986	0.109633	0.186099	18773.343750
7978.337884	0.097372	0.186099	18860.783203
7978.338749	0.097460	0.186099	18945.085937
7978.339869	0.097548	0.186099	19054.339844
7978.340838	0.097379	0.186099	19148.701172
7978.341703	0.097456	0.186099	19233.000000
7978.342777	0.097478	0.186099	19337.691406
7978.343814	0.097540	0.186099	19438.839844
7978.344708	0.097405	0.186099	19525.919922
7978.345638	0.097632	0.186099	19616.716797
7979.397108	1.053380	0.147491	499.302185
7979.397992	1.477694	0.147491	1805.583740
7979.398858	1.473417	0.147491	3081.562500
7979.399953	1.432859	0.147491	4650.542969
7979.400907	1.396003	0.147491	5982.330078
7979.401786	1.363484	0.147491	7180.832520
7979.402749	1.329426	0.147491	8461.070312
7979.403781	1.294479	0.147491	9796.972656
7979.404667	1.265321	0.147491	10918.046875
7979.405530	1.237694	0.147491	11986.176758
7979.406592	1.206064	0.147491	13267.017578
7979.407527	1.178108	0.147491	14368.548828
7979.408395	1.152766	0.147491	15369.149414
7979.409349	1.128450	0.147491	16445.691406
7979.410396	1.104313	0.147491	17601.906250
7979.411288	1.065487	0.147491	18552.320312
7979.412247	0.264628	0.147491	18806.097656
7979.413310	0.097478	0.147491	18909.716797
7979.414243	0.097496	0.147491	19000.681641
7979.415104	0.097559	0.147491	19084.679687
7979.416177	0.097584	0.147491	19189.386719
7979.417193	0.097441	0.147491	19288.386719
7979.418081	0.097493	0.147491	19374.960937
7979.419056	0.097544	0.147491	19470.066406
7979.420104	0.097507	0.147491	19572.253906
7979.421017	0.097408	0.147491	19661.187500
7980.388880	1.050201	0.186812	536.652954
7980.389941	1.482978	0.186812	2110.093262
7980.390874	1.464016	0.186812	3476.020264
7980.391746	1.429673	0.186812	4722.694824
7980.392818	1.389448	0.186812	6212.183105
7980.393825	1.352439	0.186812	7574.088867
7980.394717	1.320831	0.186812	8752.270508
7980.395644	1.289817	0.186812	9947.930664
7980.396513	1.260659	0.186812	11043.443359
7980.397530	1.230091	0.186812	12294.446289
7980.398452	1.202289	0.186812	13402.957031
7980.399321	1.176042	0.186812	14424.937500
7980.400354	1.146951	0.186812	15609.737305
7980.401236	1.125022	0.186812	16602.005859
7980.402104	1.104902	0.186812	17561.060547
7980.403070	1.010211	0.186812	18536.923828
7980.404040	0.197380	0.186812	18728.382812
7980.404952	0.097401	0.186812	18817.212891
7980.405827	0.097482	0.186812	18902.509766
7980.406852	0.097416	0.186812	19002.361328
7980.407753	0.097507	0.186812	19090.214844
7980.408625	0.097379	0.186812	19175.128906
7980.409502	0.097489	0.186812	19260.626953
7980.410551	0.097463	0.186812	19362.865234
7980.411442	0.097452	0.186812	19449.695312
7980.412300	0.097504	0.186812	19533.353516
7981.467610	1.035011	0.146009	462.649933
7981.468475	1.474515	0.146009	1738.105713
7981.469587	1.467147	0.146009	3369.573486
7981.470553	1.430105	0.146009	4751.054687
7981.471416	1.396853	0.146009	5956.539062
7981.472456	1.358899	0.146009	7369.793945
7981.473497	1.322179	0.146009	8746.182617
7981.474378	1.292271	0.146009	9884.672852
7981.475310	1.261351	0.146009	11060.251953
7981.476400	1.227898	0.146009	12398.661133
7981.477327	1.199374	0.146009	13510.480469
7981.478206	1.172952	0.146009	14541.504883
7981.479256	1.143179	0.146009	15741.842773
7981.480290	1.119565	0.146009	16899.472656
7981.481180	1.097307	0.146009	17876.076172
7981.482165	0.802002	0.146009	18666.048828
7981.483228	0.109475	0.146009	18782.419922
7981.484145	0.097335	0.146009	18871.675781
7981.485007	0.097460	0.146009	18955.685547
7981.486083	0.097522	0.146009	19060.619141
7981.487078	0.097441	0.146009	19157.574219
7981.487968	0.097537	0.146009	19244.380859
7981.488945	0.097581	0.146009	19339.716797
7981.489988	0.097478	0.146009	19441.386719
7981.490893	0.097383	0.146009	19529.517578
7981.491755	0.097603	0.146009	19613.650391
7982.461376	0.996365	0.186312	422.458649
7982.462437	1.480063	0.186312	1992.805908
7982.463463	1.463954	0.186312	3494.822510
7982.464352	1.429596	0.186312	4765.733398
7982.465313	1.393367	0.186312	6104.758789
7982.466364	1.354266	0.186312	7528.092773
7982.467296	1.321827	0.186312	8760.036133
7982.468158	1.291681	0.186312	9873.464844
7982.469235	1.257733	0.186312	11228.042969
7982.470251	1.225924	0.186312	12473.582031
7982.471132	1.199095	0.186312	13529.985352
7982.472137	1.170194	0.186312	14706.030273
7982.473193	1.139725	0.186312	15909.580078
7982.474098	1.119346	0.186312	16922.587891
7982.474961	1.096846	0.186312	17869.166016
7982.476066	0.709252	0.186312	18652.888672
7982.477044	0.104279	0.186312	18754.873047
7982.477933	0.097394	0.186312	18841.457031
7982.478917	0.097588	0.186312	18937.484375
7982.479975	0.097460	0.186312	19040.597656
7982.480859	0.097474	0.186312	19126.765625
7982.481720	0.097496	0.186312	19210.710937
7982.482825	0.097529	0.186312	19318.480469
7982.483786	0.097489	0.186312	19412.167969
7982.484657	0.097474	0.186312	19497.068359
7982.485715	0.097661	0.186312	19600.394531
7983.534524	0.995032	0.150871	424.878540
7983.535557	1.477423	0.150871	1951.056519
7983.536606	1.464547	0.150871	3487.366455
7983.537498	1.429717	0.150871	4762.673828
7983.538433	1.394143	0.150871	6066.197754
7983.539507	1.354731	0.150871	7521.179199
7983.540439	1.322205	0.150871	8753.473633
7983.541304	1.292040	0.150871	9871.087891
7983.542365	1.258033	0.150871	11205.861328
7983.543407	1.225862	0.150871	12483.208984
7983.544296	1.198502	0.150871	13548.677734
7983.545208	1.171414	0.150871	14617.006836
7983.546090	1.145867	0.150871	15627.661133
7983.547053	1.123136	0.150871	16709.240234
7983.547978	1.101292	0.150871	17727.935547
7983.548865	1.017396	0.150871	18630.365234
7983.549923	0.155204	0.150871	18794.570312
7983.550816	0.097386	0.150871	18881.537109
7983.551688	0.097394	0.150871	18966.464844
7983.552598	0.097544	0.150871	19055.230469
7983.553606	0.097482	0.150871	19153.492187
7983.554491	0.097559	0.150871	19239.832031
7983.555356	0.097467	0.150871	19324.140625
7983.556360	0.097533	0.150871	19422.064453
7983.557279	0.097551	0.150871	19511.714844
7983.558185	0.097405	0.150871	19599.962891
7984.533960	1.011826	0.190550	443.179871
7984.534827	1.473204	0.190550	1720.447998
7984.535937	1.467330	0.190550	3349.184570
7984.536907	1.430585	0.190550	4736.851562
7984.537772	1.396912	0.190550	5945.180176
7984.538817	1.358075	0.190550	7364.368164
7984.539857	1.321937	0.190550	8739.182617
7984.540751	1.291564	0.190550	9893.840820
7984.541693	1.260857	0.190550	11081.568359
7984.542769	1.227089	0.190550	12401.916016
7984.543712	1.198788	0.190550	13532.373047
7984.544587	1.172479	0.190550	14558.291992
7984.545657	1.142197	0.190550	15780.443359
7984.546674	1.119100	0.190550	16918.568359
7984.547565	1.096732	0.190550	17895.755859
7984.548538	0.793755	0.190550	18668.080078
7984.549608	0.107889	0.190550	18783.521484
7984.550520	0.097438	0.190550	18872.384766
7984.551385	0.097478	0.190550	18956.703125
7984.552481	0.097562	0.190550	19063.630859
7984.553475	0.097357	0.190550	19160.404297
7984.554363	0.097471	0.190550	19246.958984
7984.555370	0.097529	0.190550	19345.171875
7984.556422	0.097452	0.190550	19447.691406
7984.557300	0.097365	0.190550	19533.177734
7984.558158	0.097471	0.190550	19616.806641
7985.601465	0.990319	0.154545	417.914459
7985.602495	1.478921	0.154545	1941.202881
7985.603471	1.467180	0.154545	3373.170654
7985.604346	1.433170	0.154545	4627.194336
7985.605212	1.398109	0.154545	5837.957031
7985.606331	1.359444	0.154545	7359.175293
7985.607209	1.327613	0.154545	8524.820312
7985.608080	1.296687	0.154545	9654.234375
7985.609189	1.261948	0.154545	11053.735352
7985.610157	1.231864	0.154545	12246.179687
7985.611026	1.205006	0.154545	13293.330078
7985.612070	1.174303	0.154545	14519.302734
7985.613122	1.144332	0.154545	15723.140625
7985.613995	1.123081	0.154545	16703.589844
7985.614943	1.100739	0.154545	17747.089844
7985.616003	0.831467	0.154545	18628.445312
7985.616945	0.123717	0.154545	18744.986328
7985.617814	0.097416	0.154545	18829.640625
7985.618856	0.097584	0.154545	18931.324219
7985.619876	0.097434	0.154545	19030.707031
7985.620760	0.097405	0.154545	19116.812500
7985.621707	0.097482	0.154545	19209.126953
7985.622757	0.097445	0.154545	19311.443359
7985.623686	0.097375	0.154545	19401.904297
7985.624547	0.097361	0.154545	19485.732422
7985.625618	0.097570	0.154545	19590.228516
7986.606556	1.038047	0.192657	466.083038
7986.607447	1.476039	0.192657	1781.233643
7986.608327	1.473772	0.192657	3078.152832
7986.609323	1.436810	0.192657	4509.215820
7986.610272	1.399786	0.192657	5837.613281
7986.611159	1.366589	0.192657	7049.778320
7986.612129	1.332649	0.192657	8342.447266
7986.613148	1.297328	0.192657	9664.423828
7986.614040	1.268419	0.192657	10795.853516
7986.614906	1.240008	0.192657	11869.701172
7986.616002	1.207782	0.192657	13193.429687
7986.616914	1.180239	0.192657	14269.807617
7986.617792	1.154912	0.192657	15283.820312
7986.618791	1.129504	0.192657	16412.195312
7986.619812	1.105756	0.192657	17541.171875
7986.620687	1.081187	0.192657	18487.210937
7986.621563	0.339430	0.192657	18784.550781
7986.622612	0.097646	0.192657	18886.982422
7986.623543	0.097383	0.192657	18977.646484
7986.624406	0.097441	0.192657	19061.738281
7986.625475	0.097606	0.192657	19166.080078
7986.626478	0.097467	0.192657	19263.839844
7986.627371	0.097452	0.192657	19350.865234
7986.628346	0.097515	0.192657	19445.941406
7986.629399	0.097485	0.192657	19548.593750
7986.630321	0.097463	0.192657	19638.455078
7987.669008	1.068805	0.156269	532.264832
7987.669965	1.481367	0.156269	1949.933105
7987.670826	1.470147	0.156269	3215.729248
7987.671884	1.430632	0.156269	4729.338379
7987.672905	1.391393	0.156269	6149.950195
7987.673785	1.358588	0.156269	7345.507324
7987.674733	1.325218	0.156269	8601.814453
7987.675812	1.288359	0.156269	9991.954102
7987.676751	1.258345	0.156269	11173.540039
7987.677620	1.230795	0.156269	12243.100586
7987.678671	1.199286	0.156269	13503.549805
7987.679696	1.168766	0.156269	14701.535156
7987.680596	1.143270	0.156269	15730.478516
7987.681571	1.120924	0.156269	16823.378906
7987.682628	1.094667	0.156269	17980.441406
7987.683552	0.791199	0.156269	18711.509766
7987.684413	0.120677	0.156269	18815.412109
7987.685510	0.097493	0.156269	18922.361328
7987.686499	0.097401	0.156269	19018.691406
7987.687383	0.097394	0.156269	19104.787109
7987.688384	0.097562	0.156269	19202.447266
7987.689427	0.097405	0.156269	19304.041016
7987.690324	0.097434	0.156269	19391.439453
7987.691183	0.097507	0.156269	19475.199219
7987.692293	0.097599	0.156269	19583.533203
7987.693249	0.097463	0.156269	19676.708984
7988.679182	1.064535	0.189954	538.654663
7988.680091	1.479716	0.189954	1883.716187
7988.680961	1.470659	0.189954	3163.189697
7988.682052	1.430438	0.189954	4723.797852
7988.683039	1.392235	0.189954	6097.934082
7988.683937	1.359250	0.189954	7318.541016
7988.684956	1.323882	0.189954	8667.576172
7988.686013	1.288136	0.189954	10029.135742
7988.686904	1.258945	0.189954	11150.856445
7988.687784	1.230132	0.189954	12233.372070
7988.688892	1.197935	0.189954	13560.683594
7988.689844	1.169967	0.189954	14674.492187
7988.690712	1.144849	0.189954	15668.220703
7988.691760	1.120701	0.189954	16842.714844
7988.692808	1.094747	0.189954	17990.009766
7988.693698	0.820371	0.189954	18720.140625
7988.694629	0.125742	0.189954	18837.207031
7988.695708	0.097529	0.189954	18942.441406
7988.696630	0.097471	0.189954	19032.308594
7988.697496	0.097496	0.189954	19116.740234
7988.698526	0.097548	0.189954	19217.214844
7988.699547	0.097467	0.189954	19316.728516
7988.700431	0.097555	0.189954	19402.966797
7988.701391	0.097460	0.189954	19496.527344
7988.702446	0.097544	0.189954	19599.435547
7988.703372	0.097419	0.189954	19689.646484
7989.736399	1.006457	0.155914	441.834808
7989.737264	1.473197	0.155914	1716.150269
7989.738282	1.470073	0.155914	3212.684814
7989.739331	1.430541	0.155914	4713.322266
7989.740227	1.395853	0.155914	5964.006836
7989.741166	1.361558	0.155914	7242.509277
7989.742232	1.323556	0.155914	8653.419922
7989.743179	1.291553	0.155914	9876.520508
7989.744041	1.263054	0.155914	10965.273437
7989.745114	1.230114	0.155914	12285.185547
7989.746120	1.199711	0.155914	13492.094727
7989.747014	1.172985	0.155914	14540.743164
7989.747996	1.145339	0.155914	15665.466797
7989.749041	1.120477	0.155914	16836.365234
7989.749959	1.097769	0.155914	17844.117187
7989.750821	0.909921	0.155914	18628.468750
7989.751912	0.126365	0.155914	18766.332031
7989.752910	0.097456	0.155914	18863.593750
7989.753785	0.097515	0.155914	18948.919922
7989.754685	0.097478	0.155914	19036.650391
7989.755560	0.097427	0.155914	19121.898437
7989.756551	0.097511	0.155914	19218.531250
7989.757481	0.097478	0.155914	19309.185547
7989.758359	0.097452	0.155914	19394.748047
7989.759371	0.097434	0.155914	19493.351562
7989.760270	0.097375	0.155914	19580.892578
7990.750143	0.998547	0.188411	425.381195
7990.751083	1.472263	0.188411	1809.308594
7990.752154	1.465774	0.188411	3379.152344
7990.753103	1.429739	0.188411	4735.974609
7990.753972	1.395919	0.188411	5949.028320
7990.755032	1.357053	0.188411	7387.504883
7990.756053	1.321234	0.188411	8736.484375
7990.756944	1.291351	0.188411	9887.078125
7990.757915	1.259927	0.188411	11110.466797
7990.758985	1.226631	0.188411	12422.961914
7990.759909	1.198630	0.188411	13530.496094
7990.760775	1.171948	0.188411	14545.403320
7990.761864	1.141732	0.188411	15788.750000
7990.762855	1.119181	0.188411	16897.857422
7990.763747	1.096923	0.188411	17876.312500
7990.764753	0.779736	0.188411	18660.726562
7990.765818	0.108047	0.188411	18775.796875
7990.766693	0.097335	0.188411	18860.964844
7990.767554	0.097449	0.188411	18944.869141
7990.768652	0.097592	0.188411	19052.025391
7990.769602	0.097474	0.188411	19144.626953
7990.770497	0.097467	0.188411	19231.859375
7990.771376	0.097456	0.188411	19317.523437
7990.772412	0.097449	0.188411	19418.480469
7990.773321	0.097456	0.188411	19507.068359
7990.774208	0.097416	0.188411	19593.476562
7991.804977	1.082560	0.159250	589.995117
7991.805989	1.483890	0.159250	2091.692383
7991.806879	1.465865	0.159250	3396.312500
7991.807746	1.431390	0.159250	4637.328125
7991.808852	1.390781	0.159250	6175.532227
7991.809767	1.356519	0.159250	7416.747070
7991.810632	1.325380	0.159250	8563.200195
7991.811726	1.289355	0.159250	9973.754883
7991.812731	1.256645	0.159250	11236.683594
7991.813614	1.229154	0.159250	12322.026367
7991.814620	1.199077	0.159250	13528.297852
7991.815687	1.167715	0.159250	14774.250000
7991.816581	1.141787	0.159250	15795.007812
7991.817446	1.120649	0.159250	16764.369141
7991.818568	1.094154	0.159250	17992.009766
7991.819528	0.739940	0.159250	18702.351562
7991.820394	0.113848	0.159250	18800.943359
7991.821418	0.097430	0.159250	18900.712891
7991.822458	0.097401	0.159250	19002.009766
7991.823345	0.097394	0.159250	19088.398437
7991.824259	0.097529	0.159250	19177.541016
7991.825336	0.097548	0.159250	19282.599609
7991.826277	0.097295	0.159250	19374.154297
7991.827142	0.097416	0.159250	19458.417969
7991.828194	0.097540	0.159250	19561.031250
7991.829216	0.097456	0.159250	19660.630859
7992.820672	0.994673	0.188612	424.725311
7992.821707	1.477434	0.188612	1953.869629
7992.822701	1.465668	0.188612	3410.743408
7992.823564	1.432196	0.188612	4646.728516
7992.824588	1.393110	0.188612	6073.273437
7992.825632	1.354955	0.188612	7487.846191
7992.826525	1.323263	0.188612	8669.519531
7992.827413	1.292292	0.188612	9817.075195
7992.828530	1.257250	0.188612	11221.422852
7992.829481	1.227345	0.188612	12388.627930
7992.830343	1.201084	0.188612	13423.962891
7992.831406	1.170048	0.188612	14667.723633
7992.832435	1.140663	0.188612	15841.465820
7992.833316	1.120646	0.188612	16828.753906
7992.834288	1.096692	0.188612	17894.738281
7992.835350	0.713661	0.188612	18652.646484
7992.836275	0.108007	0.188612	18752.552734
7992.837139	0.097511	0.188612	18836.802734
7992.838217	0.097570	0.188612	18941.982422
7992.839232	0.097452	0.188612	19040.896484
7992.840120	0.097438	0.188612	19127.421875
7992.841098	0.097562	0.188612	19222.837891
7992.842157	0.097555	0.188612	19326.148437
7992.843069	0.097460	0.188612	19415.031250
7992.843931	0.097533	0.188612	19499.105469
7992.845026	0.097496	0.188612	19605.863281
7993.875485	1.066183	0.159975	554.415100
7993.876360	1.478899	0.159975	1848.451660
7993.877226	1.470022	0.159975	3121.490723
7993.878349	1.429032	0.159975	4726.293457
7993.879329	1.392246	0.159975	6090.694336
7993.880202	1.359895	0.159975	7277.882812
7993.881237	1.323409	0.159975	8647.611328
7993.882292	1.288165	0.159975	10006.625977
7993.883190	1.258916	0.159975	11137.132812
7993.884144	1.229348	0.159975	12309.930664
7993.885204	1.197067	0.159975	13578.821289
7993.886149	1.169290	0.159975	14683.799805
7993.887017	1.144156	0.159975	15676.927734
7993.888099	1.119360	0.159975	16888.076172
7993.889108	1.093931	0.159975	17991.851562
7993.890008	0.797201	0.159975	18709.332031
7993.890982	0.118649	0.159975	18824.896484
7993.892031	0.097555	0.159975	18927.232422
7993.892936	0.097423	0.159975	19015.400391
7993.893801	0.097434	0.159975	19099.681641
7993.894897	0.097493	0.159975	19206.533203
7993.895892	0.097408	0.159975	19303.455078
7993.896767	0.097474	0.159975	19388.746094
7993.897777	0.097463	0.159975	19487.183594
7993.898830	0.097485	0.159975	19589.835937
7993.899704	0.097482	0.159975	19675.035156
7994.889654	0.986799	0.191915	412.482117
7994.890556	1.471143	0.191915	1739.452637
7994.891633	1.467367	0.191915	3319.806885
7994.892589	1.430969	0.191915	4687.813477
7994.893457	1.397340	0.191915	5900.704590
7994.894521	1.358588	0.191915	7346.241699
7994.895554	1.322120	0.191915	8711.992187
7994.896447	1.292095	0.191915	9865.833008
7994.897404	1.261014	0.191915	11072.624023
7994.898461	1.227803	0.191915	12370.411133
7994.899391	1.199619	0.191915	13486.056641
7994.900253	1.173406	0.191915	14497.532227
7994.901333	1.143223	0.191915	15732.212891
7994.902346	1.119917	0.191915	16866.689453
7994.903225	1.097904	0.191915	17831.746094
7994.904210	0.818306	0.191915	18637.777344
7994.905275	0.111819	0.191915	18756.865234
7994.906181	0.097313	0.191915	18845.031250
7994.907044	0.097452	0.191915	18929.132812
7994.908130	0.097537	0.191915	19035.056641
7994.909131	0.097441	0.191915	19132.595703
7994.910026	0.097496	0.191915	19219.855469
7994.910998	0.097625	0.191915	19314.746094
7994.912066	0.097507	0.191915	19418.884766
7994.912953	0.097419	0.191915	19505.294922
7994.913820	0.097438	0.191915	19589.773437
7995.946478	1.028793	0.161332	484.561371
7995.947364	1.476515	0.161332	1792.753662
7995.948353	1.469949	0.161332	3246.532959
7995.949274	1.433844	0.161332	4567.103516
7995.950199	1.398164	0.161332	5860.405273
7995.951082	1.365147	0.161332	7065.829590
7995.952117	1.329320	0.161332	8441.675781
7995.953016	1.298185	0.161332	9608.744141
7995.953883	1.269602	0.161332	10709.489258
7995.954950	1.236343	0.161332	12028.666992
7995.955906	1.207258	0.161332	13182.805664
7995.956788	1.180953	0.161332	14224.406250
7995.957756	1.153370	0.161332	15340.869141
7995.958782	1.126824	0.161332	16496.990234
7995.959665	1.106752	0.161332	17474.251953
7995.960528	1.080469	0.161332	18406.697266
7995.961610	0.270729	0.161332	18699.625000
7995.962547	0.097372	0.161332	18790.863281
7995.963413	0.097419	0.161332	18875.228516
7995.964352	0.097559	0.161332	18966.835937
7995.965405	0.097471	0.161332	19069.472656
7995.966299	0.097452	0.161332	19156.595703
7995.967242	0.097555	0.161332	19248.589844
7995.968309	0.097456	0.161332	19352.576172
7995.969247	0.097551	0.161332	19444.080078
7995.970113	0.097434	0.161332	19528.457031
7996.958268	1.088577	0.195771	604.160034
7996.959202	1.481686	0.195771	1988.054565
7996.960132	1.466858	0.195771	3352.232422
7996.960996	1.432504	0.195771	4589.915527
7996.962034	1.393268	0.195771	6036.127441
7996.962937	1.359921	0.195771	7264.135742
7996.963815	1.329185	0.195771	8431.160156
7996.964785	1.296870	0.195771	9689.124023
7996.965751	1.264633	0.195771	10910.758789
7996.966637	1.236976	0.195771	12006.719727
7996.967581	1.208148	0.195771	13147.211914
7996.968653	1.176317	0.195771	14408.223633
7996.969543	1.150532	0.195771	15432.197266
7996.970411	1.127681	0.195771	16411.023437
7996.971489	1.103573	0.195771	17600.675781
7996.972431	1.040614	0.195771	18580.933594
7996.973308	0.236777	0.195771	18788.587891
7996.974249	0.097584	0.195771	18880.414062
7996.975313	0.097507	0.195771	18984.162109
7996.976194	0.097386	0.195771	19069.958984
7996.977053	0.097460	0.195771	19153.677734
7996.978091	0.097690	0.195771	19255.080078
7996.979047	0.097427	0.195771	19348.220703
7996.979914	0.097452	0.195771	19432.712891
7996.980941	0.097511	0.195771	19532.857422
7996.981984	0.097445	0.195771	19634.492187
7998.017039	1.041815	0.161639	531.325745
7998.018094	1.482147	0.161639	2094.990967
7998.019035	1.463240	0.161639	3471.899658
7998.019909	1.429369	0.161639	4721.167969
7998.020963	1.389159	0.161639	6185.341797
7998.021988	1.351692	0.161639	7570.826172
7998.022883	1.320648	0.161639	8752.806641
7998.023856	1.287913	0.161639	10005.945312
7998.024915	1.253672	0.161639	11333.583984
7998.025836	1.225031	0.161639	12461.836914
7998.026704	1.198019	0.161639	13501.716797
7998.027808	1.166213	0.161639	14789.216797
7998.028808	1.137700	0.161639	15926.916992
7998.029708	1.118408	0.161639	16933.484375
7998.030719	1.092817	0.161639	18038.322266
7998.031767	0.603644	0.161639	18670.941406
7998.032656	0.102561	0.161639	18762.117187
7998.033538	0.097408	0.161639	18848.031250
7998.034635	0.097478	0.161639	18954.964844
7998.035585	0.097386	0.161639	19047.482422
7998.036442	0.097471	0.161639	19131.015625
7998.037488	0.097559	0.161639	19233.062500
7998.038517	0.097471	0.161639	19333.359375
7998.039405	0.097430	0.161639	19419.876953
7998.040339	0.097452	0.161639	19510.898437
7998.041413	0.097515	0.161639	19615.628906
7999.027723	1.063458	0.196133	535.982971
7999.028716	1.482129	0.196133	2007.736816
7999.029614	1.467078	0.196133	3325.172363
7999.030617	1.429281	0.196133	4758.741211
7999.031670	1.389056	0.196133	6221.417480
7999.032563	1.356277	0.196133	7432.572754
7999.033449	1.323999	0.196133	8605.635742
7999.034565	1.286971	0.196133	10041.895508
7999.035534	1.255880	0.196133	11258.843750
7999.036403	1.228751	0.196133	12326.628906
7999.037464	1.196788	0.196133	13596.420898
7999.038490	1.166536	0.196133	14793.286133
7999.039385	1.140861	0.196133	15814.356445
7999.040359	1.119027	0.196133	16904.289062
7999.041406	1.092814	0.196133	18048.464844
7999.042343	0.714075	0.196133	18717.552734
7999.043206	0.111548	0.196133	18813.818359
7999.044275	0.097544	0.196133	18918.093750
7999.045282	0.097419	0.196133	19016.195312
7999.046156	0.097423	0.196133	19101.343750
7999.047134	0.097570	0.196133	19196.767578
7999.048183	0.097515	0.196133	19299.060547
7999.049077	0.097485	0.196133	19386.212891
7999.049941	0.097522	0.196133	19470.472656
7999.051009	0.097526	0.196133	19574.630859
7999.052000	0.097383	0.196133	19671.136719
8000.090104	1.027734	0.157771	500.506653
8000.091178	1.481448	0.157771	2091.581543
8000.092128	1.463580	0.157771	3481.982910
8000.092989	1.429662	0.157771	4712.921875
8000.094028	1.389862	0.157771	6156.988281
8000.095061	1.352091	0.157771	7553.698242
8000.095958	1.321289	0.157771	8738.894531
8000.096934	1.288751	0.157771	9996.715820
8000.098007	1.253610	0.157771	11341.838867
8000.098923	1.225005	0.157771	12463.943359
8000.099798	1.197865	0.157771	13512.075195
8000.100900	1.166063	0.157771	14797.077148
8000.101902	1.137514	0.157771	15936.865234
8000.102801	1.118284	0.157771	16942.203125
8000.103681	1.096091	0.157771	17906.763672
8000.104673	0.767600	0.157771	18668.222656
8000.105600	0.112998	0.157771	18772.972656
8000.106527	0.097529	0.157771	18863.382812
8000.107391	0.097595	0.157771	18947.705078
8000.108428	0.097540	0.157771	19048.853516
8000.109309	0.097584	0.157771	19134.826172
8000.110172	0.097559	0.157771	19219.019531
8000.111133	0.097573	0.157771	19312.787109
8000.112091	0.097566	0.157771	19406.255859
8000.113003	0.097548	0.157771	19495.218750
8000.113880	0.097471	0.157771	19580.701172
8001.093705	1.106836	0.195827	630.896484
8001.094785	1.483015	0.195827	2232.552734
8001.095659	1.462079	0.195827	3510.409668
8001.096537	1.426666	0.195827	4763.022461
8001.097671	1.385127	0.195827	6333.756348
8001.098629	1.350388	0.195827	7627.428223
8001.099501	1.319916	0.195827	8778.394531
8001.100519	1.285393	0.195827	10086.924805
8001.101555	1.252189	0.195827	11384.192383
8001.102452	1.224474	0.195827	12482.544922
8001.103403	1.196210	0.195827	13620.140625
8001.104485	1.164086	0.195827	14879.681641
8001.105430	1.137396	0.195827	15954.521484
8001.106299	1.118350	0.195827	16926.367187
8001.107375	1.091155	0.195827	18100.449219
8001.108387	0.573208	0.195827	18680.535156
8001.109280	0.101876	0.195827	18771.509766
8001.110256	0.097562	0.195827	18866.730469
8001.111314	0.097478	0.195827	18969.861328
8001.112223	0.097460	0.195827	19058.453125
8001.113084	0.097427	0.195827	19142.337891
8001.114166	0.097493	0.195827	19247.824219
8001.115170	0.097471	0.195827	19345.685547
8001.116057	0.097529	0.195827	19432.193359
8001.116922	0.097467	0.195827	19516.501953
8001.117954	0.097485	0.195827	19617.107422
8002.161624	1.030825	0.160825	465.932953
8002.162505	1.474812	0.160825	1765.242432
8002.163481	1.470187	0.160825	3200.144531
8002.164546	1.430010	0.160825	4723.104980
8002.165460	1.394480	0.160825	5997.659668
8002.166327	1.361210	0.160825	7177.828613
8002.167430	1.323596	0.160825	8637.754883
8002.168412	1.290055	0.160825	9904.588867
8002.169310	1.261143	0.160825	11037.094727
8002.170326	1.229766	0.160825	12286.537109
8002.171370	1.198689	0.160825	13537.968750
8002.172257	1.171754	0.160825	14577.314453
8002.173155	1.145435	0.160825	15605.915039
8002.174237	1.120595	0.160825	16818.398437
8002.175191	1.097223	0.160825	17865.148437
8002.176056	0.933948	0.160825	18673.013672
8002.177110	0.132118	0.160825	18812.265625
8002.178144	0.097350	0.160825	18912.925781
8002.179019	0.097430	0.160825	18998.177734
8002.179942	0.097482	0.160825	19088.154297
8002.181007	0.097383	0.160825	19191.867187
8002.181930	0.097430	0.160825	19281.794922
8002.182796	0.097416	0.160825	19366.156250
8002.183828	0.097441	0.160825	19466.714844
8002.184842	0.097434	0.160825	19565.513672
8002.185726	0.097394	0.160825	19651.609375
8003.161155	1.118361	0.195533	618.453369
8003.162070	1.481422	0.195533	1973.954590
8003.162993	1.467103	0.195533	3328.090820
8003.163861	1.432427	0.195533	4571.437012
8003.164898	1.394143	0.195533	6017.163574
8003.165780	1.361616	0.195533	7218.109375
8003.166654	1.330602	0.195533	8381.055664
8003.167666	1.297024	0.195533	9693.643555
8003.168583	1.265925	0.195533	10854.497070
8003.169468	1.237947	0.195533	11950.080078
8003.170447	1.208426	0.195533	13133.129883
8003.171469	1.177603	0.195533	14336.639648
8003.172367	1.151598	0.195533	15370.774414
8003.173242	1.128314	0.195533	16358.048828
8003.174334	1.104283	0.195533	17563.925781
8003.175276	1.054182	0.195533	18556.964844
8003.176158	0.256729	0.195533	18783.398437
8003.177130	0.097738	0.195533	18878.400391
8003.178142	0.097504	0.195533	18977.074219
8003.179030	0.097515	0.195533	19063.667969
8003.179892	0.097559	0.195533	19147.763672
8003.180962	0.097562	0.195533	19252.156250
8003.181886	0.097441	0.195533	19342.191406
8003.182747	0.097430	0.195533	19426.078125
8003.183813	0.097526	0.195533	19530.041016
8003.184825	0.097485	0.195533	19628.695312
8004.232122	0.994219	0.162968	420.554504
8004.233066	1.471381	0.162968	1809.537842
8004.234105	1.466858	0.162968	3333.603271
8004.235046	1.430764	0.162968	4679.952148
8004.235913	1.397450	0.162968	5891.541016
8004.236951	1.359214	0.162968	7302.405273
8004.237990	1.322889	0.162968	8676.887695
8004.238877	1.292545	0.162968	9823.375000
8004.239862	1.260923	0.162968	11065.383789
8004.240902	1.228048	0.162968	12342.553711
8004.241830	1.200194	0.162968	13456.333984
8004.242692	1.173578	0.162968	14467.958008
8004.243789	1.143366	0.162968	15722.230469
8004.244798	1.119990	0.162968	16852.300781
8004.245676	1.098050	0.162968	17816.388672
8004.246669	0.812296	0.162968	18622.998047
8004.247743	0.111295	0.162968	18742.529297
8004.248633	0.097321	0.162968	18829.144531
8004.249497	0.097434	0.162968	18913.328125
8004.250597	0.097548	0.162968	19020.630859
8004.251559	0.097500	0.162968	19114.425781
8004.252420	0.097416	0.162968	19198.300781
8004.253481	0.097537	0.162968	19301.787109
8004.254527	0.097419	0.162968	19403.687500
8004.255418	0.097456	0.162968	19490.521484
8004.256340	0.097445	0.162968	19580.365234
8005.230136	1.110604	0.193861	599.726318
8005.231178	1.482982	0.193861	2144.993652
8005.232072	1.463584	0.193861	3453.437744
8005.233032	1.427582	0.193861	4823.916016
8005.234108	1.385797	0.193861	6315.033691
8005.235050	1.351439	0.193861	7588.089355
8005.235919	1.320333	0.193861	8735.458984
8005.236994	1.284697	0.193861	10116.508789
8005.238002	1.252211	0.193861	11378.737305
8005.238900	1.224675	0.193861	12478.496094
8005.239898	1.195031	0.193861	13671.136719
8005.240968	1.163331	0.193861	14915.901367
8005.241881	1.137327	0.193861	15954.280273
8005.242751	1.117694	0.193861	16926.673828
8005.243858	1.090360	0.193861	18133.703125
8005.244837	0.588047	0.193861	18709.400391
8005.245700	0.103213	0.193861	18798.472656
8005.246742	0.097566	0.193861	18900.136719
8005.247776	0.097540	0.193861	19000.994141
8005.248652	0.097449	0.193861	19086.359375
8005.249561	0.097489	0.193861	19174.976562
8005.250633	0.097504	0.193861	19279.500000
8005.251573	0.097456	0.193861	19371.109375
8005.252429	0.097515	0.193861	19454.582031
8005.253464	0.097595	0.193861	19555.593750
8005.254497	0.097478	0.193861	19656.289062
8006.303298	1.128087	0.160692	617.063660
8006.304354	1.483151	0.160692	2183.270752
8006.305244	1.463335	0.160692	3485.638916
8006.306192	1.426838	0.160692	4838.281738
8006.307275	1.385508	0.160692	6338.786621
8006.308206	1.350685	0.160692	7596.274414
8006.309138	1.318524	0.160692	8825.138672
8006.310007	1.289103	0.160692	9945.369141
8006.311056	1.256093	0.160692	11263.009766
8006.311951	1.228173	0.160692	12362.224609
8006.312828	1.201260	0.160692	13415.729492
8006.313803	1.173197	0.160692	14559.596680
8006.314787	1.144717	0.160692	15685.998047
8006.315710	1.122927	0.160692	16722.458984
8006.316575	1.101764	0.160692	17675.484375
8006.317626	0.925133	0.160692	18647.798828
8006.318527	0.151432	0.160692	18784.238281
8006.319401	0.097346	0.160692	18869.318359
8006.320305	0.097430	0.160692	18957.394531
8006.321335	0.097441	0.160692	19057.759766
8006.322223	0.097489	0.160692	19144.330078
8006.323082	0.097548	0.160692	19228.123047
8006.324184	0.097482	0.160692	19335.548828
8006.325085	0.097419	0.160692	19423.324219
8006.325962	0.097452	0.160692	19508.789062
8006.326977	0.097507	0.160692	19607.759766
8007.300635	1.077147	0.199823	543.959290
8007.301550	1.479254	0.199823	1897.476807
8007.302418	1.469399	0.199823	3172.915527
8007.303509	1.429175	0.199823	4732.145508
8007.304507	1.390693	0.199823	6120.057617
8007.305386	1.358752	0.199823	7314.400879
8007.306398	1.323761	0.199823	8654.046875
8007.307465	1.287601	0.199823	10027.917969
8007.308357	1.258235	0.199823	11150.263672
8007.309220	1.229443	0.199823	12211.273437
8007.310346	1.197499	0.199823	13559.657227
8007.311305	1.168868	0.199823	14680.601562
8007.312172	1.144076	0.199823	15672.515625
8007.313196	1.120016	0.199823	16819.412109
8007.314254	1.094139	0.199823	17977.011719
8007.315147	0.813215	0.199823	18703.212891
8007.316079	0.124102	0.199823	18818.875000
8007.317135	0.097474	0.199823	18921.808594
8007.318072	0.097551	0.199823	19013.214844
8007.318943	0.097471	0.199823	19098.111328
8007.320009	0.097621	0.199823	19202.175781
8007.321023	0.097496	0.199823	19301.037109
8007.321906	0.097438	0.199823	19387.074219
8007.322853	0.097533	0.199823	19479.437500
8007.323898	0.097551	0.199823	19581.378906
8007.324822	0.097496	0.199823	19671.464844
8008.372754	1.044888	0.156362	534.982544
8008.373819	1.481807	0.156362	2113.106445
8008.374741	1.463218	0.156362	3462.193359
8008.375603	1.429288	0.156362	4694.239746
8008.376689	1.388694	0.156362	6202.361328
8008.377698	1.351959	0.156362	7566.488281
8008.378579	1.320685	0.156362	8730.011719
8008.379596	1.287199	0.156362	10039.092773
8008.380659	1.252954	0.156362	11370.983398
8008.381562	1.224624	0.156362	12476.818359
8008.382425	1.197103	0.156362	13509.917969
8008.383516	1.165810	0.156362	14781.817383
8008.384496	1.138429	0.156362	15897.477539
8008.385365	1.119569	0.156362	16870.382812
8008.386426	1.092561	0.156362	18029.589844
8008.387475	0.595430	0.156362	18654.195312
8008.388363	0.102554	0.156362	18745.263672
8008.389272	0.097423	0.156362	18833.820312
8008.390346	0.097489	0.156362	18938.523437
8008.391282	0.097471	0.156362	19029.755859
8008.392153	0.097427	0.156362	19114.615234
8008.393214	0.097544	0.156362	19218.109375
8008.394230	0.097434	0.156362	19317.101562
8008.395120	0.097401	0.156362	19403.789062
8008.396075	0.097507	0.156362	19496.908203
8008.397110	0.097548	0.156362	19597.869141
8009.371083	1.006783	0.200407	438.957611
8009.371956	1.472809	0.200407	1724.719727
8009.372846	1.471926	0.200407	3034.734131
8009.373966	1.432068	0.200407	4638.650391
8009.374869	1.396432	0.200407	5899.628418
8009.375737	1.364784	0.200407	7084.260742
8009.376755	1.328536	0.200407	8436.710937
8009.377734	1.295314	0.200407	9704.823242
8009.378616	1.266310	0.200407	10821.708008
8009.379485	1.237551	0.200407	11897.140625
8009.380600	1.205724	0.200407	13241.522461
8009.381494	1.178694	0.200407	14295.274414
8009.382358	1.153674	0.200407	15292.048828
8009.383439	1.126344	0.200407	16509.626953
8009.384410	1.103793	0.200407	17581.410156
8009.385275	1.074481	0.200407	18510.835937
8009.386325	0.224495	0.200407	18746.554687
8009.387350	0.097350	0.200407	18846.337891
8009.388226	0.097493	0.200407	18931.742187
8009.389116	0.097500	0.200407	19018.517578
8009.390232	0.097478	0.200407	19127.302734
8009.391174	0.097321	0.200407	19218.978516
8009.392042	0.097445	0.200407	19303.560547
8009.393068	0.097515	0.200407	19403.611328
8009.394103	0.097368	0.200407	19504.386719
8009.394992	0.097390	0.200407	19590.966797
8010.440702	1.062078	0.156249	511.921417
8010.441588	1.476606	0.156249	1820.194702
8010.442557	1.468956	0.156249	3243.613281
8010.443606	1.429160	0.156249	4742.802246
8010.444528	1.393074	0.156249	6027.216309
8010.445393	1.360898	0.156249	7204.393555
8010.446478	1.323636	0.156249	8640.539062
8010.447490	1.289180	0.156249	9945.188477
8010.448372	1.260502	0.156249	11056.951172
8010.449373	1.229513	0.156249	12287.693359
8010.450436	1.197664	0.156249	13560.809570
8010.451328	1.170524	0.156249	14604.916992
8010.452204	1.144285	0.156249	15607.310547
8010.453303	1.119642	0.156249	16837.796875
8010.454281	1.095791	0.156249	17909.480469
8010.455162	0.883938	0.156249	18688.230469
8010.456209	0.118590	0.156249	18812.394531
8010.457269	0.097401	0.156249	18915.640625
8010.458159	0.097452	0.156249	19002.373047
8010.459087	0.097518	0.156249	19092.869141
8010.460162	0.097537	0.156249	19197.720703
8010.461099	0.097489	0.156249	19289.068359
8010.461966	0.097412	0.156249	19373.525391
8010.463008	0.097566	0.156249	19475.189453
8010.464030	0.097452	0.156249	19574.785156
8010.464921	0.097416	0.156249	19661.582031
8011.444194	1.037812	0.191835	474.280304
8011.445064	1.473977	0.191835	1756.640259
8011.446079	1.468561	0.191835	3247.229492
8011.447130	1.429266	0.191835	4749.388672
8011.448017	1.394645	0.191835	5986.438477
8011.448926	1.360093	0.191835	7222.762695
8011.450034	1.322344	0.191835	8687.919922
8011.450967	1.290125	0.191835	9891.606445
8011.451843	1.261765	0.191835	10996.913086
8011.452877	1.229421	0.191835	12268.134766
8011.453914	1.198209	0.191835	13510.677734
8011.454813	1.171586	0.191835	14563.933594
8011.455785	1.144116	0.191835	15676.014648
8011.456850	1.119393	0.191835	16868.167969
8011.457770	1.096165	0.191835	17876.638672
8011.458649	0.869586	0.191835	18641.005859
8011.459749	0.114316	0.191835	18766.753906
8011.460743	0.097354	0.191835	18863.523437
8011.461630	0.097365	0.191835	18949.886719
8011.462618	0.097529	0.191835	19046.246094
8011.463666	0.097537	0.191835	19148.464844
8011.464566	0.097555	0.191835	19236.263672
8011.465426	0.097533	0.191835	19320.142578
8011.466517	0.097522	0.191835	19426.539062
8011.467498	0.097416	0.191835	19522.103516
8011.468374	0.097471	0.191835	19607.488281
8012.505015	0.991490	0.167097	417.417480
8012.506055	1.477987	0.167097	1954.524048
8012.507100	1.462614	0.167097	3482.955078
8012.507996	1.428321	0.167097	4762.730957
8012.508950	1.391942	0.167097	6090.643555
8012.510006	1.353127	0.167097	7519.545898
8012.510945	1.320022	0.167097	8759.046875
8012.511870	1.289085	0.167097	9951.450195
8012.512739	1.260428	0.167097	11046.762695
8012.513792	1.228279	0.167097	12340.140625
8012.514685	1.201102	0.167097	13412.724609
8012.515566	1.175017	0.167097	14447.914062
8012.516541	1.147727	0.167097	15566.948242
8012.517519	1.123601	0.167097	16665.830078
8012.518449	1.101306	0.167097	17690.044922
8012.519316	1.031027	0.167097	18583.945312
8012.520368	0.174441	0.167097	18767.457031
8012.521232	0.097346	0.167097	18851.564453
8012.522107	0.097405	0.167097	18936.792969
8012.522988	0.097445	0.167097	19022.642578
8012.524037	0.097416	0.167097	19124.832031
8012.524919	0.097419	0.167097	19210.755859
8012.525778	0.097441	0.167097	19294.458984
8012.526888	0.097489	0.167097	19402.671875
8012.527795	0.097416	0.167097	19491.027344
8012.528671	0.097460	0.167097	19576.402344
8013.518865	1.045126	0.189885	537.194641
8013.519933	1.481634	0.189885	2119.580322
8013.520863	1.462218	0.189885	3479.443115
8013.521744	1.427699	0.189885	4737.246094
8013.522815	1.387145	0.189885	6222.877930
8013.523832	1.350044	0.189885	7595.872559
8013.524726	1.318857	0.189885	8774.931641
8013.525715	1.286265	0.189885	10047.046875
8013.526770	1.252324	0.189885	11368.249023
8013.527677	1.224089	0.189885	12478.498047
8013.528542	1.196876	0.189885	13513.795898
8013.529664	1.164833	0.189885	14820.738281
8013.530639	1.137447	0.189885	15929.750000
8013.531549	1.117771	0.189885	16946.921875
8013.532438	1.095077	0.189885	17920.445312
8013.533469	0.716473	0.189885	18659.128906
8013.534371	0.109362	0.189885	18757.773437
8013.535286	0.097397	0.189885	18846.892578
8013.536145	0.097537	0.189885	18930.675781
8013.537186	0.097423	0.189885	19032.093750
8013.538059	0.097405	0.189885	19117.128906
8013.538934	0.097507	0.189885	19202.447266
8013.539923	0.097592	0.189885	19298.964844
8013.540857	0.097445	0.189885	19389.978516
8013.541783	0.097511	0.189885	19480.273437
8013.542647	0.097489	0.189885	19564.503906
8014.571961	0.994896	0.175226	421.835999
8014.572994	1.477888	0.175226	1948.494629
8014.573961	1.465811	0.175226	3365.933594
8014.574835	1.432247	0.175226	4617.717773
8014.575859	1.392880	0.175226	6044.026367
8014.576899	1.354995	0.175226	7453.221191
8014.577792	1.323362	0.175226	8634.983398
8014.578740	1.291619	0.175226	9859.437500
8014.579810	1.256605	0.175226	11204.004883
8014.580746	1.227718	0.175226	12353.149414
8014.581616	1.201084	0.175226	13398.092773
8014.582698	1.169407	0.175226	14663.390625
8014.583708	1.140502	0.175226	15815.296875
8014.584604	1.120356	0.175226	16819.136719
8014.585589	1.096289	0.175226	17898.980469
8014.586650	0.718180	0.175226	18660.968750
8014.587559	0.108970	0.175226	18760.021484
8014.588416	0.097324	0.175226	18843.427734
8014.589499	0.097661	0.175226	18949.195312
8014.590488	0.097463	0.175226	19045.585937
8014.591371	0.097467	0.175226	19131.648437
8014.592368	0.097533	0.175226	19228.888672
8014.593425	0.097493	0.175226	19331.937500
8014.594300	0.097430	0.175226	19417.189453
8014.595160	0.097449	0.175226	19500.996094
8014.596275	0.097584	0.175226	19609.802734
8015.589921	1.074430	0.203787	554.405884
8015.590807	1.478738	0.203787	1864.567627
8015.591677	1.469074	0.203787	3142.661621
8015.592804	1.427941	0.203787	4751.950684
8015.593785	1.390624	0.203787	6116.152344
8015.594661	1.358613	0.203787	7306.297852
8015.595694	1.321926	0.203787	8671.847656
8015.596739	1.287147	0.203787	10016.916992
8015.597633	1.257814	0.203787	11141.402344
8015.598573	1.228898	0.203787	12296.566406
8015.599645	1.196221	0.203787	13578.915039
8015.600596	1.168308	0.203787	14689.976562
8015.601463	1.143376	0.203787	15681.284180
8015.602544	1.118679	0.203787	16890.576172
8015.603566	1.093074	0.203787	18007.697266
8015.604465	0.773932	0.203787	18703.462891
8015.605435	0.116448	0.203787	18816.417969
8015.606476	0.097621	0.203787	18918.041016
8015.607383	0.097467	0.203787	19006.443359
8015.608244	0.097544	0.203787	19090.427734
8015.609328	0.097603	0.203787	19196.228516
8015.610321	0.097507	0.203787	19293.052734
8015.611197	0.097471	0.203787	19378.437500
8015.612193	0.097668	0.203787	19475.714844
8015.613241	0.097643	0.203787	19578.044922
8015.614144	0.097504	0.203787	19666.089844
8016.644542	0.996617	0.168406	424.558990
8016.645560	1.476786	0.168406	1927.927002
8016.646614	1.463661	0.168406	3470.625488
8016.647508	1.428768	0.168406	4747.944336
8016.648429	1.393136	0.168406	6031.022461
8016.649526	1.353336	0.168406	7515.632324
8016.650475	1.319894	0.168406	8768.211914
8016.651346	1.290037	0.168406	9891.833984
8016.652428	1.255712	0.168406	11250.513672
8016.653439	1.224397	0.168406	12488.378906
8016.654325	1.197766	0.168406	13549.599609
8016.655301	1.169381	0.168406	14690.916016
8016.656357	1.139011	0.168406	15893.711914
8016.657275	1.118742	0.168406	16920.716797
8016.658140	1.096205	0.168406	17868.933594
8016.659228	0.712002	0.168406	18643.591797
8016.660225	0.104729	0.168406	18748.005859
8016.661101	0.097537	0.168406	18833.447266
8016.662100	0.097727	0.168406	18931.076172
8016.663138	0.097643	0.168406	19032.429687
8016.664026	0.097657	0.168406	19119.150391
8016.664892	0.097661	0.168406	19203.724609
8016.665993	0.097723	0.168406	19311.318359
8016.666956	0.097610	0.168406	19405.316406
8016.667835	0.097603	0.168406	19491.109375
8016.668823	0.097767	0.168406	19587.703125
8017.656324	1.060111	0.210023	526.875183
8017.657228	1.478522	0.210023	1863.458740
8017.658094	1.469769	0.210023	3136.278809
8017.659185	1.429666	0.210023	4696.043945
8017.660187	1.391364	0.210023	6090.190430
8017.661079	1.358888	0.210023	7302.318359
8017.662089	1.323549	0.210023	8639.102539
8017.663135	1.288920	0.210023	9987.312500
8017.664029	1.259176	0.210023	11113.015625
8017.664905	1.230516	0.210023	12190.948242
8017.666001	1.198557	0.210023	13504.566406
8017.666961	1.170516	0.210023	14628.261719
8017.667824	1.145391	0.210023	15616.733398
8017.668857	1.121349	0.210023	16775.085937
8017.669901	1.095960	0.210023	17919.267578
8017.670777	0.869663	0.210023	18681.091797
8017.671708	0.137292	0.210023	18808.910156
8017.672771	0.097676	0.210023	18912.740234
8017.673712	0.097599	0.210023	19004.580078
8017.674578	0.097654	0.210023	19089.148437
8017.675624	0.097738	0.210023	19191.382812
8017.676651	0.097628	0.210023	19291.646484
8017.677538	0.097650	0.210023	19378.261719
8017.678491	0.097786	0.210023	19471.451172
8017.679540	0.097614	0.210023	19573.847656
8017.680467	0.097592	0.210023	19664.314453
8018.719744	1.054102	0.161619	517.563904
8018.720626	1.476672	0.161619	1819.988770
8018.721496	1.472010	0.161619	3100.637939
8018.722415	1.437165	0.161619	4421.393066
8018.723419	1.397959	0.161619	5824.943848
8018.724356	1.363828	0.161619	7102.850586
8018.725243	1.332799	0.161619	8285.042969
8018.726268	1.298339	0.161619	9615.839844
8018.727171	1.267694	0.161619	10760.567383
8018.728098	1.239104	0.161619	11909.216797
8018.728961	1.211334	0.161619	12954.598633
8018.730008	1.181455	0.161619	14191.582031
8018.730890	1.155428	0.161619	15210.669922
8018.731774	1.131464	0.161619	16210.883789
8018.732776	1.110322	0.161619	17323.425781
8018.733703	1.085413	0.161619	18329.603516
8018.734590	0.478821	0.161619	18754.318359
8018.735555	0.100316	0.161619	18851.123047
8018.736569	0.097646	0.161619	18950.136719
8018.737455	0.097643	0.161619	19036.648437
8018.738315	0.097610	0.161619	19120.593750
8018.739384	0.097657	0.161619	19224.990234
8018.740315	0.097636	0.161619	19315.888672
8018.741188	0.097573	0.161619	19401.070312
8018.742157	0.097610	0.161619	19495.654297
8018.743188	0.097610	0.161619	19596.291016
8018.744069	0.097496	0.161619	19682.185547
8019.720131	0.997365	0.206961	427.869385
8019.721001	1.471725	0.206961	1708.270020
8019.722056	1.467894	0.206961	3256.898437
8019.723087	1.429039	0.206961	4730.238281
8019.723989	1.394143	0.206961	5987.755371
8019.724956	1.359316	0.206961	7302.214355
8019.726005	1.322062	0.206961	8689.056641
8019.726936	1.290231	0.206961	9890.261719
8019.727804	1.261458	0.206961	10985.207031
8019.728894	1.228315	0.206961	12324.070312
8019.729894	1.198151	0.206961	13522.220703
8019.730776	1.171846	0.206961	14555.789062
8019.731778	1.143629	0.206961	15701.705078
8019.732835	1.119228	0.206961	16884.730469
8019.733741	1.096340	0.206961	17878.015625
8019.734603	0.857303	0.206961	18617.011719
8019.735698	0.117817	0.206961	18746.021484
8019.736654	0.097460	0.206961	18839.193359
8019.737565	0.097529	0.206961	18928.042969
8019.738451	0.097548	0.206961	19014.470703
8019.739455	0.097577	0.206961	19112.437500
8019.740385	0.097599	0.206961	19203.205078
8019.741314	0.097566	0.206961	19293.843750
8019.742175	0.097679	0.206961	19377.945312
8019.743214	0.097540	0.206961	19479.289062
8019.744091	0.097581	0.206961	19564.867187
8020.791221	1.008142	0.169647	423.419678
8020.792329	1.480236	0.169647	2063.520752
8020.793304	1.463123	0.169647	3490.065430
8020.794175	1.429570	0.169647	4735.221191
8020.795228	1.389166	0.169647	6198.013184
8020.796263	1.351582	0.169647	7596.900391
8020.797161	1.320007	0.169647	8782.266602
8020.798098	1.288740	0.169647	9989.816406
8020.799156	1.254269	0.169647	11316.833008
8020.800091	1.225463	0.169647	12462.640625
8020.800959	1.198817	0.169647	13503.213867
8020.802020	1.167839	0.169647	14742.291016
8020.803030	1.139257	0.169647	15892.940430
8020.803909	1.119727	0.169647	16877.179687
8020.804883	1.095700	0.169647	17944.390625
8020.805946	0.685536	0.169647	18673.115234
8020.806860	0.106619	0.169647	18770.564453
8020.807719	0.097566	0.169647	18854.373047
8020.808774	0.097628	0.169647	18957.371094
8020.809771	0.097533	0.169647	19054.611328
8020.810658	0.097603	0.169647	19141.185547
8020.811642	0.097804	0.169647	19237.423828
8020.812683	0.097581	0.169647	19339.005859
8020.813597	0.097551	0.169647	19428.167969
8020.814457	0.097625	0.169647	19512.125000
8020.815562	0.097793	0.169647	19620.185547
8021.789205	1.070336	0.199589	544.800842
8021.790106	1.478811	0.199589	1877.209473
8021.790984	1.470374	0.199589	3168.197266
8021.791980	1.433133	0.199589	4595.598145
8021.792994	1.393645	0.199589	6008.754395
8021.793883	1.360752	0.199589	7218.462891
8021.794750	1.329437	0.199589	8371.084961
8021.795834	1.293669	0.199589	9773.422852
8021.796752	1.263655	0.199589	10933.458008
8021.797620	1.235504	0.199589	12005.875977
8021.798700	1.203541	0.199589	13305.700195
8021.799707	1.173669	0.199589	14487.584961
8021.800587	1.148394	0.199589	15498.171875
8021.801597	1.124315	0.199589	16633.730469
8021.802649	1.099050	0.199589	17789.931641
8021.803544	0.960710	0.199589	18649.767578
8021.804405	0.172390	0.199589	18798.195312
8021.805522	0.097646	0.199589	18907.265625
8021.806486	0.097610	0.199589	19001.361328
8021.807341	0.097581	0.199589	19084.792969
8021.808422	0.097657	0.199589	19190.361328
8021.809477	0.097573	0.199589	19293.300781
8021.810355	0.097540	0.199589	19378.941406
8021.811283	0.097657	0.199589	19469.568359
8021.812355	0.097756	0.199589	19574.363281
8021.813296	0.097621	0.199589	19666.224609
8022.860216	0.989861	0.174300	417.721283
8022.861125	1.470571	0.174300	1754.470581
8022.862216	1.465455	0.174300	3353.282227
8022.863181	1.428831	0.174300	4732.103516
8022.864052	1.395029	0.174300	5947.173828
8022.865101	1.356932	0.174300	7370.595703
8022.866113	1.321069	0.174300	8707.517578
8022.867010	1.290399	0.174300	9865.005859
8022.867966	1.259835	0.174300	11069.408203
8022.869024	1.227118	0.174300	12367.699219
8022.869941	1.199506	0.174300	13467.645508
8022.870803	1.173010	0.174300	14478.780273
8022.871877	1.143314	0.174300	15706.700195
8022.872879	1.120188	0.174300	16829.128906
8022.873757	1.098259	0.174300	17793.400391
8022.874767	0.831592	0.174300	18633.308594
8022.875831	0.114141	0.174300	18754.753906
8022.876723	0.097419	0.174300	18841.652344
8022.877584	0.097595	0.174300	18925.681641
8022.878678	0.097592	0.174300	19032.447266
8022.879674	0.097592	0.174300	19129.648437
8022.880560	0.097474	0.174300	19216.009766
8022.881548	0.097668	0.174300	19312.505859
8022.882605	0.097537	0.174300	19415.601562
8022.883497	0.097621	0.174300	19502.679687
8022.884371	0.097562	0.174300	19587.949219
8023.859658	1.004388	0.202615	440.926544
8023.860526	1.471908	0.202615	1718.542603
8023.861571	1.468385	0.202615	3253.004883
8023.862611	1.429065	0.202615	4739.232422
8023.863498	1.394396	0.202615	5976.061523
8023.864446	1.359998	0.202615	7265.338867
8023.865529	1.321879	0.202615	8696.933594
8023.866467	1.289982	0.202615	9906.936523
8023.867329	1.261143	0.202615	10994.041016
8023.868406	1.228495	0.202615	12317.129883
8023.869424	1.197605	0.202615	13536.291992
8023.870298	1.171637	0.202615	14560.302734
8023.871275	1.144127	0.202615	15678.115234
8023.872331	1.119434	0.202615	16860.236328
8023.873249	1.096348	0.202615	17866.683594
8023.874119	0.870231	0.202615	18623.785156
8023.875216	0.116990	0.202615	18752.123047
8023.876208	0.097489	0.202615	18848.832031
8023.877104	0.097636	0.202615	18936.312500
8023.878100	0.097731	0.202615	19033.652344
8023.879141	0.097606	0.202615	19135.259766
8023.880032	0.097610	0.202615	19222.230469
8023.880892	0.097625	0.202615	19306.187500
8023.882000	0.097745	0.202615	19414.490234
8023.882970	0.097606	0.202615	19509.167969
8023.883839	0.097676	0.202615	19594.048828
8024.930772	1.016774	0.169248	449.413910
8024.931642	1.472318	0.169248	1730.330688
8024.932683	1.468238	0.169248	3258.767090
8024.933564	1.434316	0.169248	4522.399902
8024.934436	1.400768	0.169248	5743.869141
8024.935425	1.364656	0.169248	7093.513672
8024.936365	1.330979	0.169248	8344.633789
8024.937251	1.300565	0.169248	9496.934570
8024.938230	1.268968	0.169248	10739.254883
8024.939256	1.236053	0.169248	12007.445312
8024.940151	1.208979	0.169248	13089.482422
8024.941023	1.182122	0.169248	14120.292969
8024.942125	1.151301	0.169248	15389.027344
8024.943070	1.127007	0.169248	16454.048828
8024.943955	1.107144	0.169248	17433.871094
8024.944940	1.060840	0.169248	18478.798828
8024.945962	0.222872	0.169248	18706.574219
8024.946839	0.097526	0.169248	18792.103516
8024.947694	0.097595	0.169248	18875.546875
8024.948782	0.097716	0.169248	18981.861328
8024.949704	0.097540	0.169248	19071.792969
8024.950567	0.097485	0.169248	19155.921875
8024.951521	0.097632	0.169248	19249.062500
8024.952543	0.097625	0.169248	19348.833984
8024.953432	0.097581	0.169248	19435.583984
8024.954385	0.097668	0.169248	19528.662109
8025.930171	0.996588	0.208359	424.546570
8025.931166	1.473732	0.208359	1890.909668
8025.932223	1.463873	0.208359	3438.223633
8025.933127	1.428545	0.208359	4729.628418
8025.934003	1.393118	0.208359	5949.999512
8025.935132	1.353387	0.208359	7477.973633
8025.936102	1.319762	0.208359	8758.142578
8025.936982	1.289696	0.208359	9893.075195
8025.938018	1.256755	0.208359	11195.074219
8025.939062	1.224481	0.208359	12473.432617
8025.939959	1.197100	0.208359	13547.230469
8025.940873	1.170388	0.208359	14616.964844
8025.941741	1.145296	0.208359	15611.081055
8025.942731	1.121737	0.208359	16721.601562
8025.943657	1.099548	0.208359	17739.783203
8025.944535	1.003312	0.208359	18620.691406
8025.945559	0.178876	0.208359	18803.859375
8025.946459	0.097416	0.208359	18891.533203
8025.947377	0.097588	0.208359	18981.119141
8025.948240	0.097570	0.208359	19065.322266
8025.949258	0.097592	0.208359	19164.669922
8025.950151	0.097584	0.208359	19251.812500
8025.951025	0.097577	0.208359	19337.093750
8025.952008	0.097668	0.208359	19433.101562
8025.952950	0.097537	0.208359	19524.980469
8025.953871	0.097540	0.208359	19614.814453
8027.001365	1.070588	0.160043	537.435364
8027.002378	1.481385	0.160043	2038.078857
8027.003277	1.465576	0.160043	3355.631836
8027.004244	1.428702	0.160043	4737.187012
8027.005316	1.387441	0.160043	6224.524414
8027.006245	1.353464	0.160043	7481.892578
8027.007116	1.322040	0.160043	8633.389648
8027.008188	1.286975	0.160043	10013.027344
8027.009195	1.254163	0.160043	11275.968750
8027.010089	1.226583	0.160043	12372.534180
8027.011080	1.197144	0.160043	13558.903320
8027.012151	1.165928	0.160043	14807.612305
8027.013048	1.139857	0.160043	15830.064453
8027.013925	1.119210	0.160043	16811.611328
8027.015033	1.092850	0.160043	18022.490234
8027.016003	0.693204	0.160043	18694.898437
8027.016862	0.109537	0.160043	18788.990234
8027.017895	0.097628	0.160043	18889.839844
8027.018934	0.097628	0.160043	18991.275391
8027.019809	0.097603	0.160043	19076.677734
8027.020712	0.097636	0.160043	19164.841797
8027.021784	0.097698	0.160043	19269.574219
8027.022728	0.097654	0.160043	19361.759766
8027.023583	0.097610	0.160043	19445.216797
8027.024597	0.097786	0.160043	19544.371094
8027.025659	0.097592	0.160043	19648.013672
8027.999181	1.016342	0.207481	447.190277
8028.000053	1.471879	0.207481	1730.668457
8028.001058	1.468246	0.207481	3206.255371
8028.002111	1.428988	0.207481	4710.979492
8028.003006	1.394509	0.207481	5959.065430
8028.003904	1.360144	0.207481	7180.474609
8028.005002	1.322534	0.207481	8632.617187
8028.005963	1.290037	0.207481	9872.342773
8028.006838	1.261513	0.207481	10976.166016
8028.007872	1.229634	0.207481	12247.607422
8028.008919	1.198165	0.207481	13502.086914
8028.009817	1.171077	0.207481	14553.713867
8028.010777	1.144127	0.207481	15652.076172
8028.011841	1.119298	0.207481	16843.009766
8028.012770	1.096216	0.207481	17861.394531
8028.013640	0.887783	0.207481	18633.765625
8028.014717	0.119011	0.207481	18761.941406
8028.015714	0.097310	0.207481	18858.958984
8028.016599	0.097408	0.207481	18945.166016
8028.017596	0.097533	0.207481	19042.406250
8028.018633	0.097526	0.207481	19143.541016
8028.019529	0.097522	0.207481	19230.919922
8028.020387	0.097427	0.207481	19314.511719
8028.021483	0.097504	0.207481	19421.375000
8028.022471	0.097397	0.207481	19517.603516
8028.023343	0.097522	0.207481	19602.642578
8029.070930	1.122726	0.156740	648.935547
8029.071995	1.482458	0.156740	2227.753906
8029.072892	1.460720	0.156740	3538.020020
8029.073765	1.425553	0.156740	4782.527832
8029.074876	1.385010	0.156740	6321.273437
8029.075835	1.350172	0.156740	7616.088379
8029.076699	1.319476	0.156740	8756.116211
8029.077737	1.285045	0.156740	10089.993164
8029.078776	1.251877	0.156740	11390.693359
8029.079660	1.224141	0.156740	12472.833984
8029.080620	1.195774	0.156740	13620.777344
8029.081678	1.164316	0.156740	14852.624023
8029.082614	1.137506	0.156740	15917.330078
8029.083540	1.117961	0.156740	16952.562500
8029.084407	1.095205	0.156740	17902.105469
8029.085434	0.741185	0.156740	18663.302734
8029.086337	0.111965	0.156740	18764.408203
8029.087212	0.097489	0.156740	18849.710937
8029.088138	0.097654	0.156740	18940.138672
8029.089124	0.097463	0.156740	19036.238281
8029.090036	0.097471	0.156740	19125.130859
8029.090911	0.097570	0.156740	19210.503906
8029.091984	0.097555	0.156740	19315.179687
8029.092877	0.097463	0.156740	19402.214844
8029.093745	0.097438	0.156740	19486.791016
8029.094620	0.097540	0.156740	19572.138672
8030.070206	1.013899	0.201245	432.934845
8030.071286	1.479177	0.201245	2030.446289
8030.072283	1.462306	0.201245	3488.365234
8030.073169	1.428461	0.201245	4753.981445
8030.074186	1.389825	0.201245	6167.434082
8030.075249	1.351047	0.201245	7603.597168
8030.076135	1.319934	0.201245	8773.058594
8030.077034	1.288502	0.201245	9931.421875
8030.078153	1.253489	0.201245	11334.076172
8030.079096	1.224005	0.201245	12488.312500
8030.079966	1.197645	0.201245	13530.263672
8030.081010	1.166953	0.201245	14748.562500
8030.082038	1.137865	0.201245	15918.288086
8030.082929	1.118793	0.201245	16915.132812
8030.083893	1.094608	0.201245	17970.335937
8030.084950	0.656034	0.201245	18663.763672
8030.085869	0.104495	0.201245	18759.794922
8030.086736	0.097625	0.201245	18844.435547
8030.087797	0.097672	0.201245	18948.066406
8030.088804	0.097639	0.201245	19046.388672
8030.089691	0.097636	0.201245	19132.992187
8030.090657	0.097694	0.201245	19227.365234
8030.091708	0.097588	0.201245	19329.929687
8030.092625	0.097526	0.201245	19419.361328
8030.093483	0.097636	0.201245	19503.132812
8030.094574	0.097778	0.201245	19609.808594
8031.139768	0.989410	0.160052	417.531219
8031.140796	1.476588	0.160052	1935.463867
8031.141846	1.463046	0.160052	3471.661621
8031.142740	1.428138	0.160052	4748.417480
8031.143677	1.392843	0.160052	6053.511230
8031.144723	1.354164	0.160052	7469.966797
8031.145685	1.320143	0.160052	8739.944336
8031.146554	1.290890	0.160052	9861.727539
8031.147616	1.256580	0.160052	11196.214844
8031.148661	1.224159	0.160052	12475.460937
8031.149551	1.197539	0.160052	13541.270508
8031.150535	1.169008	0.160052	14691.574219
8031.151597	1.138612	0.160052	15900.780273
8031.152512	1.118434	0.160052	16924.146484
8031.153377	1.095560	0.160052	17871.806641
8031.154487	0.686169	0.160052	18633.455078
8031.155479	0.103356	0.160052	18735.984375
8031.156357	0.097544	0.160052	18821.628906
8031.157354	0.097709	0.160052	18919.044922
8031.158413	0.097548	0.160052	19022.347656
8031.159292	0.097621	0.160052	19108.156250
8031.160158	0.097654	0.160052	19192.724609
8031.161255	0.097690	0.160052	19299.890625
8031.162215	0.097511	0.160052	19393.501953
8031.163085	0.097478	0.160052	19478.308594
8031.164142	0.097698	0.160052	19581.574219
8032.139704	0.988191	0.196447	415.040192
8032.140613	1.470110	0.196447	1751.369995
8032.141706	1.465712	0.196447	3353.393066
8032.142600	1.431053	0.196447	4632.754883
8032.143468	1.397582	0.196447	5845.855957
8032.144521	1.358935	0.196447	7276.814941
8032.145487	1.324856	0.196447	8556.625977
8032.146364	1.294493	0.196447	9691.896484
8032.147255	1.265167	0.196447	10819.160156
8032.148353	1.232183	0.196447	12172.096680
8032.149238	1.204797	0.196447	13238.342773
8032.150122	1.177526	0.196447	14279.275391
8032.151224	1.146932	0.196447	15543.195312
8032.152185	1.123814	0.196447	16623.179687
8032.153056	1.102994	0.196447	17583.888672
8032.154121	0.936628	0.196447	18581.398437
8032.155149	0.138263	0.196447	18723.533203
8032.156023	0.097504	0.196447	18808.751953
8032.156952	0.097592	0.196447	18899.414062
8032.158025	0.097643	0.196447	19004.185547
8032.158948	0.097584	0.196447	19094.255859
8032.159815	0.097559	0.196447	19178.839844
8032.160840	0.097603	0.196447	19278.882812
8032.161866	0.097603	0.196447	19379.023437
8032.162750	0.097482	0.196447	19465.197266
8032.163709	0.097650	0.196447	19558.843750
8033.208770	0.996229	0.165337	431.367249
8033.209637	1.471187	0.165337	1706.885986
8033.210685	1.468099	0.165337	3245.454102
8033.211711	1.429310	0.165337	4711.926758
8033.212609	1.394282	0.165337	5963.992187
8033.213560	1.360111	0.165337	7257.458008
8033.214613	1.322508	0.165337	8650.059570
8033.215555	1.290612	0.165337	9865.815430
8033.216419	1.262095	0.165337	10956.265625
8033.217490	1.229209	0.165337	12272.748047
8033.218508	1.198506	0.165337	13492.827148
8033.219389	1.172450	0.165337	14525.755859
8033.220382	1.144691	0.165337	15662.433594
8033.221430	1.120041	0.165337	16836.236328
8033.222344	1.097153	0.165337	17839.035156
8033.223214	0.884447	0.165337	18608.503906
8033.224320	0.121406	0.165337	18742.779297
8033.225319	0.097522	0.165337	18840.203125
8033.226193	0.097482	0.165337	18925.402344
8033.227195	0.097606	0.165337	19023.203125
8033.228261	0.097595	0.165337	19127.240234
8033.229137	0.097522	0.165337	19212.669922
8033.230010	0.097467	0.165337	19297.757812
8033.230869	0.097592	0.165337	19381.589844
8033.231930	0.097471	0.165337	19485.005859
8033.232825	0.097416	0.165337	19572.193359
8034.209723	1.001722	0.198522	424.730286
8034.210805	1.478324	0.198522	2024.276855
8034.211813	1.461995	0.198522	3497.967285
8034.212689	1.428270	0.198522	4749.131836
8034.213685	1.390078	0.198522	6133.649414
8034.214749	1.351769	0.198522	7571.931641
8034.215647	1.319919	0.198522	8757.218750
8034.216518	1.288810	0.198522	9879.772461
8034.217630	1.254258	0.198522	11274.506836
8034.218593	1.224884	0.198522	12454.070312
8034.219462	1.198854	0.198522	13495.874023
8034.220486	1.168451	0.198522	14692.367187
8034.221533	1.138942	0.198522	15884.838867
8034.222426	1.119089	0.198522	16884.185547
8034.223347	1.095637	0.198522	17893.267578
8034.224441	0.682214	0.198522	18639.609375
8034.225382	0.104843	0.198522	18738.265625
8034.226245	0.097522	0.198522	18822.427734
8034.227304	0.097676	0.198522	18925.867187
8034.228312	0.097603	0.198522	19024.250000
8034.229202	0.097592	0.198522	19111.107422
8034.230157	0.097628	0.198522	19204.341797
8034.231211	0.097672	0.198522	19307.289062
8034.232129	0.097639	0.198522	19396.921875
8034.232988	0.097636	0.198522	19480.791016
8034.234060	0.097877	0.198522	19585.714844
8035.278781	0.999521	0.167822	426.795654
8035.279650	1.470535	0.167822	1704.690308
8035.280758	1.465704	0.167822	3328.690674
8035.281748	1.427736	0.167822	4742.148926
8035.282642	1.393458	0.167822	5987.900391
8035.283631	1.357551	0.167822	7330.518555
8035.284693	1.320861	0.167822	8733.272461
8035.285591	1.289864	0.167822	9891.570312
8035.286484	1.259978	0.167822	11016.730469
8035.287578	1.226744	0.167822	12358.789062
8035.288547	1.197803	0.167822	13519.459961
8035.289424	1.171465	0.167822	14546.834961
8035.290487	1.141718	0.167822	15760.480469
8035.291511	1.118544	0.167822	16905.869141
8035.292409	1.095769	0.167822	17889.869141
8035.293366	0.794509	0.167822	18650.214844
8035.294422	0.110343	0.167822	18766.736328
8035.295341	0.097438	0.167822	18856.281250
8035.296201	0.097485	0.167822	18940.119141
8035.297266	0.097610	0.167822	19044.074219
8035.298274	0.097544	0.167822	19142.398437
8035.299146	0.097471	0.167822	19227.392578
8035.300119	0.097643	0.167822	19322.398437
8035.301164	0.097639	0.167822	19424.431641
8035.302072	0.097507	0.167822	19512.968750
8035.302929	0.097657	0.167822	19596.662109
8036.279231	0.997017	0.204077	423.732086
8036.280112	1.470476	0.204077	1719.221436
8036.281247	1.464668	0.204077	3381.619629
8036.282150	1.429947	0.204077	4672.862305
8036.283019	1.396505	0.204077	5886.425293
8036.284083	1.357592	0.204077	7330.902832
8036.285058	1.322834	0.204077	8620.666016
8036.285925	1.293688	0.204077	9742.292969
8036.287011	1.258627	0.204077	11109.162109
8036.288033	1.226744	0.204077	12362.894531
8036.288927	1.199791	0.204077	13435.507812
8036.289862	1.172054	0.204077	14531.378906
8036.290933	1.141732	0.204077	15754.173828
8036.291868	1.120433	0.204077	16801.779297
8036.292731	1.098798	0.204077	17750.041016
8036.293788	0.821781	0.204077	18618.664062
8036.294811	0.114038	0.204077	18735.324219
8036.295684	0.097562	0.204077	18820.496094
8036.296632	0.097833	0.204077	18913.242187
8036.297721	0.097606	0.204077	19019.535156
8036.298624	0.097551	0.204077	19107.623047
8036.299488	0.097742	0.204077	19192.072266
8036.300553	0.097654	0.204077	19296.074219
8036.301559	0.097584	0.204077	19394.244141
8036.302451	0.097592	0.204077	19481.294922
8036.303422	0.097625	0.204077	19576.087891
8037.349308	1.001543	0.165437	428.660370
8037.350381	1.478998	0.165437	2015.625122
8037.351400	1.461526	0.165437	3504.919922
8037.352297	1.427201	0.165437	4785.119141
8037.353279	1.390031	0.165437	6150.128906
8037.354326	1.351263	0.165437	7564.901855
8037.355247	1.318740	0.165437	8779.461914
8037.356115	1.289019	0.165437	9898.330078
8037.357220	1.254368	0.165437	11284.406250
8037.358210	1.223555	0.165437	12495.725586
8037.359095	1.196887	0.165437	13554.970703
8037.360117	1.167008	0.165437	14747.653320
8037.361175	1.137169	0.165437	15950.778320
8037.362059	1.117918	0.165437	16939.017578
8037.362945	1.094176	0.165437	17908.457031
8037.364060	0.651606	0.165437	18634.998047
8037.365006	0.103524	0.165437	18732.931641
8037.365862	0.097438	0.165437	18816.337891
8037.366881	0.097654	0.165437	18915.847656
8037.367924	0.097511	0.165437	19017.550781
8037.368816	0.097526	0.165437	19104.542969
8037.369745	0.097610	0.165437	19195.222656
8037.370810	0.097599	0.165437	19299.166016
8037.371745	0.097522	0.165437	19390.349609
8037.372610	0.097555	0.165437	19474.734375
8037.373657	0.097650	0.165437	19576.974609
8038.348737	0.995581	0.207284	425.113098
8038.349692	1.471212	0.207284	1830.120605
8038.350739	1.464833	0.207284	3363.800537
8038.351676	1.429058	0.207284	4702.827637
8038.352539	1.395494	0.207284	5907.139160
8038.353598	1.357463	0.207284	7344.692871
8038.354609	1.322032	0.207284	8681.267578
8038.355484	1.291882	0.207284	9811.665039
8038.356465	1.260505	0.207284	11048.220703
8038.357550	1.226656	0.207284	12379.142578
8038.358457	1.198832	0.207284	13466.483398
8038.359327	1.172252	0.207284	14486.342773
8038.360406	1.141893	0.207284	15718.445312
8038.361418	1.119023	0.207284	16850.896484
8038.362316	1.096707	0.207284	17835.738281
8038.363314	0.799255	0.207284	18633.394531
8038.364385	0.108823	0.207284	18749.943359
8038.365274	0.097504	0.207284	18836.625000
8038.366136	0.097625	0.207284	18920.777344
8038.367256	0.097544	0.207284	19030.027344
8038.368214	0.097573	0.207284	19123.501953
8038.369084	0.097566	0.207284	19208.384766
8038.370119	0.097657	0.207284	19309.460937
8038.371156	0.097625	0.207284	19410.697266
8038.372054	0.097504	0.207284	19498.255859
8038.372996	0.097570	0.207284	19590.166016
8039.418319	1.017491	0.164040	452.783691
8039.419242	1.475394	0.164040	1814.572754
8039.420116	1.470732	0.164040	3099.992676
8039.421168	1.431870	0.164040	4606.320312
8039.422062	1.397230	0.164040	5855.444336
8039.422939	1.364982	0.164040	7052.533203
8039.423940	1.330159	0.164040	8384.022461
8039.424892	1.297020	0.164040	9618.786133
8039.425768	1.268368	0.164040	10729.875977
8039.426716	1.238628	0.164040	11904.095703
8039.427772	1.206903	0.164040	13178.584961
8039.428654	1.180049	0.164040	14219.387695
8039.429521	1.154674	0.164040	15220.490234
8039.430572	1.127648	0.164040	16405.648437
8039.431530	1.106107	0.164040	17465.298828
8039.432414	1.082827	0.164040	18422.517578
8039.433382	0.367108	0.164040	18777.878906
8039.434430	0.097533	0.164040	18880.093750
8039.435316	0.097562	0.164040	18966.533203
8039.436177	0.097551	0.164040	19050.525391
8039.437232	0.097639	0.164040	19153.535156
8039.438181	0.097504	0.164040	19246.066406
8039.439054	0.097588	0.164040	19331.259766
8039.439983	0.097581	0.164040	19421.912109
8039.441031	0.097500	0.164040	19524.091797
8039.441911	0.097489	0.164040	19609.882812
8039.442831	0.097588	0.164040	19699.664062
8040.419901	1.113527	0.203235	611.326111
8040.420948	1.481847	0.203235	2162.819824
8040.421842	1.462474	0.203235	3470.271973
8040.422788	1.426256	0.203235	4819.510254
8040.423852	1.385478	0.203235	6293.659180
8040.424793	1.350916	0.203235	7564.870605
8040.425658	1.320092	0.203235	8706.750000
8040.426724	1.285404	0.203235	10076.990234
8040.427736	1.252771	0.203235	11344.794922
8040.428623	1.225082	0.203235	12431.442383
8040.429495	1.198956	0.203235	13476.932617
8040.430494	1.170348	0.203235	14646.110352
8040.431425	1.142626	0.203235	15709.894531
8040.432344	1.121587	0.203235	16740.632812
8040.433225	1.100046	0.203235	17709.773437
8040.434259	0.902783	0.203235	18643.251953
8040.435158	0.143445	0.203235	18772.208984
8040.436032	0.097559	0.203235	18857.474609
8040.436946	0.097654	0.203235	18946.730469
8040.437957	0.097507	0.203235	19045.310547
8040.438873	0.097588	0.203235	19134.701172
8040.439744	0.097452	0.203235	19219.582031
8040.440743	0.097489	0.203235	19316.972656
8040.441648	0.097555	0.203235	19405.259766
8040.442513	0.097537	0.203235	19489.628906
8040.443509	0.097694	0.203235	19586.931641
8041.488826	0.994933	0.163568	421.851532
8041.489884	1.477859	0.163568	1985.426270
8041.490918	1.461951	0.163568	3497.083252
8041.491804	1.427681	0.163568	4762.008301
8041.492792	1.390953	0.163568	6136.270508
8041.493844	1.351857	0.163568	7558.423828
8041.494768	1.319429	0.163568	8777.576172
8041.495631	1.288850	0.163568	9889.853516
8041.496731	1.254884	0.163568	11270.225586
8041.497739	1.223295	0.163568	12503.306641
8041.498618	1.196748	0.163568	13555.248047
8041.499603	1.167675	0.163568	14705.407227
8041.500684	1.137858	0.163568	15935.431641
8041.501568	1.118342	0.163568	16924.046875
8041.502442	1.094846	0.163568	17880.941406
8041.503556	0.665010	0.163568	18621.761719
8041.504527	0.103048	0.163568	18721.822266
8041.505394	0.097489	0.163568	18806.345703
8041.506445	0.097588	0.163568	18908.910156
8041.507471	0.097606	0.163568	19009.054687
8041.508360	0.097628	0.163568	19095.845703
8041.509283	0.097573	0.163568	19185.906250
8041.510347	0.097683	0.163568	19289.841797
8041.511299	0.097566	0.163568	19382.724609
8041.512164	0.097566	0.163568	19467.119141
8041.513222	0.097639	0.163568	19570.421875
8042.488761	0.993633	0.202893	422.293976
8042.489727	1.470868	0.202893	1843.152466
8042.490773	1.464891	0.202893	3375.428711
8042.491661	1.430475	0.202893	4645.690430
8042.492530	1.396523	0.202893	5859.269531
8042.493597	1.357848	0.202893	7308.093262
8042.494537	1.324625	0.202893	8553.241211
8042.495404	1.294951	0.202893	9675.963867
8042.496479	1.260677	0.202893	11031.192383
8042.497516	1.228158	0.202893	12304.791992
8042.498404	1.201326	0.202893	13371.569336
8042.499388	1.172871	0.202893	14525.674805
8042.500439	1.142465	0.202893	15726.405273
8042.501358	1.121243	0.202893	16756.828125
8042.502221	1.099431	0.202893	17705.636719
8042.503290	0.830658	0.202893	18593.609375
8042.504298	0.115298	0.202893	18709.830078
8042.505185	0.097511	0.202893	18796.322266
8042.506168	0.097679	0.202893	18892.341797
8042.507234	0.097657	0.202893	18996.445312
8042.508136	0.097562	0.202893	19084.447266
8042.508998	0.097665	0.202893	19168.634766
8042.510103	0.097690	0.202893	19276.582031
8042.511071	0.097573	0.202893	19371.033203
8042.511935	0.097463	0.202893	19455.242187
8042.512998	0.097764	0.202893	19559.164062
8043.558331	0.991985	0.167939	417.625610
8043.559310	1.471824	0.167939	1858.541016
8043.560381	1.463346	0.167939	3425.784424
8043.561285	1.427985	0.167939	4716.682617
8043.562152	1.394425	0.167939	5925.649414
8043.563245	1.354838	0.167939	7406.486816
8043.564249	1.320187	0.167939	8731.954102
8043.565149	1.289645	0.167939	9892.634766
8043.566143	1.257594	0.167939	11142.683594
8043.567197	1.225268	0.167939	12434.116211
8043.568092	1.197854	0.167939	13506.195312
8043.568975	1.170560	0.167939	14539.799805
8043.570099	1.139751	0.167939	15820.879883
8043.571049	1.118782	0.167939	16883.722656
8043.571919	1.096707	0.167939	17837.857422
8043.572967	0.760338	0.167939	18634.691406
8043.574000	0.105985	0.167939	18744.173828
8043.574885	0.097493	0.167939	18830.455078
8043.575830	0.097679	0.167939	18922.761719
8043.576873	0.097753	0.167939	19024.718750
8043.577805	0.097595	0.167939	19115.677734
8043.578666	0.097657	0.167939	19199.761719
8043.579725	0.097720	0.167939	19303.246094
8043.580746	0.097555	0.167939	19402.849609
8043.581624	0.097548	0.167939	19488.496094
8043.582605	0.097712	0.167939	19584.351562
8044.559879	1.057284	0.206792	526.527344
8044.560837	1.479481	0.206792	1943.870361
8044.561719	1.467817	0.206792	3238.485352
8044.562730	1.429666	0.206792	4683.876953
8044.563796	1.389243	0.206792	6164.810059
8044.564694	1.355662	0.206792	7382.194336
8044.565612	1.323387	0.206792	8597.064453
8044.566719	1.286166	0.206792	10020.849609
8044.567670	1.255510	0.206792	11214.839844
8044.568539	1.228502	0.206792	12282.408203
8044.569591	1.196997	0.206792	13541.649414
8044.570614	1.166979	0.206792	14735.468750
8044.571505	1.141392	0.206792	15752.448242
8044.572468	1.119635	0.206792	16830.656250
8044.573517	1.093729	0.206792	17977.978516
8044.574442	0.777466	0.206792	18697.134766
8044.575297	0.119414	0.206792	18799.234375
8044.576374	0.097687	0.206792	18904.443359
8044.577393	0.097756	0.206792	19004.056641
8044.578272	0.097588	0.206792	19089.835937
8044.579266	0.097716	0.206792	19186.964844
8044.580325	0.097628	0.206792	19290.353516
8044.581216	0.097551	0.206792	19377.271484
8044.582080	0.097610	0.206792	19461.605469
8044.583164	0.097665	0.206792	19567.474609
8044.584148	0.097588	0.206792	19663.501953
8045.625280	0.998496	0.171419	428.354828
8045.626283	1.472556	0.171419	1905.328613
8045.627290	1.464478	0.171419	3380.057617
8045.628171	1.430522	0.171419	4640.347656
8045.629042	1.396289	0.171419	5856.515625
8045.630109	1.357661	0.171419	7305.140137
8045.631042	1.324695	0.171419	8541.080078
8045.631925	1.295039	0.171419	9684.599609
8045.632928	1.262941	0.171419	10951.329102
8045.633934	1.231051	0.171419	12189.766602
8045.634828	1.204003	0.171419	13266.144531
8045.635696	1.177291	0.171419	14288.033203
8045.636787	1.146815	0.171419	15539.208984
8045.637718	1.124194	0.171419	16585.833984
8045.638587	1.103112	0.171419	17544.437500
8045.639675	0.944736	0.171419	18572.310547
8045.640661	0.144042	0.171419	18714.335937
8045.641537	0.097438	0.171419	18799.691406
8045.642541	0.097606	0.171419	18897.687500
8045.643601	0.097676	0.171419	19001.224609
8045.644499	0.097636	0.171419	19088.900391
8045.645356	0.097533	0.171419	19172.486328
8045.646454	0.097625	0.171419	19279.677734
8045.647409	0.097559	0.171419	19372.845703
8045.648280	0.097595	0.171419	19457.851562
8045.649272	0.097786	0.171419	19554.855469
8046.632369	1.005765	0.206188	420.409943
8046.633493	1.480060	0.206188	2083.997314
8046.634407	1.463419	0.206188	3421.562500
8046.635294	1.429369	0.206188	4689.412598
8046.636336	1.389906	0.206188	6137.694336
8046.637331	1.352695	0.206188	7483.625977
8046.638249	1.321285	0.206188	8696.566406
8046.639118	1.290231	0.206188	9817.777344
8046.640244	1.255862	0.206188	11231.877930
8046.641129	1.227788	0.206188	12318.470703
8046.641991	1.201838	0.206188	13354.455078
8046.643040	1.171425	0.206188	14583.279297
8046.644009	1.143398	0.206188	15691.232422
8046.644871	1.123107	0.206188	16659.349609
8046.645944	1.097014	0.206188	17836.445312
8046.647005	0.781648	0.206188	18665.773437
8046.647878	0.118250	0.206188	18769.005859
8046.648809	0.097537	0.206188	18859.812500
8046.649872	0.097643	0.206188	18963.607422
8046.650807	0.097445	0.206188	19054.718750
8046.651671	0.097610	0.206188	19139.052734
8046.652732	0.097606	0.206188	19242.613281
8046.653754	0.097493	0.206188	19342.250000
8046.654646	0.097595	0.206188	19429.304687
8046.655602	0.097617	0.206188	19522.626953
8046.656665	0.097570	0.206188	19626.343750
8047.692809	1.063286	0.170259	531.643066
8047.693803	1.480232	0.170259	2002.993530
8047.694703	1.465375	0.170259	3321.831055
8047.695714	1.426890	0.170259	4764.416504
8047.696787	1.386196	0.170259	6251.805176
8047.697685	1.353117	0.170259	7466.903809
8047.698577	1.321194	0.170259	8645.408203
8047.699696	1.284250	0.170259	10082.484375
8047.700649	1.253976	0.170259	11277.523437
8047.701530	1.226616	0.170259	12358.171875
8047.702589	1.194913	0.170259	13623.584961
8047.703614	1.164727	0.170259	14817.429687
8047.704505	1.139249	0.170259	15832.500977
8047.705468	1.118276	0.170259	16909.400391
8047.706519	1.091601	0.170259	18056.673828
8047.707456	0.688561	0.170259	18701.855469
8047.708315	0.109373	0.170259	18795.806641
8047.709394	0.097639	0.170259	18901.160156
8047.710395	0.097540	0.170259	18998.798828
8047.711270	0.097632	0.170259	19084.226562
8047.712256	0.097742	0.170259	19180.599609
8047.713303	0.097672	0.170259	19282.863281
8047.714205	0.097592	0.170259	19370.890625
8047.715060	0.097595	0.170259	19454.333984
8047.716130	0.097646	0.170259	19558.816406
8047.717130	0.097584	0.170259	19656.400391
8048.705593	1.102943	0.203537	607.721619
8048.706653	1.481616	0.203537	2178.234619
8048.707557	1.461350	0.203537	3499.294922
8048.708438	1.425685	0.203537	4755.323242
8048.709569	1.384142	0.203537	6320.787598
8048.710534	1.349553	0.203537	7623.106445
8048.711405	1.318868	0.203537	8771.840820
8048.712436	1.284133	0.203537	10095.782227
8048.713487	1.250768	0.203537	11410.338867
8048.714385	1.222782	0.203537	12508.397461
8048.715358	1.194082	0.203537	13670.239258
8048.716420	1.162544	0.203537	14904.861328
8048.717367	1.135858	0.203537	15980.519531
8048.718235	1.117167	0.203537	16950.220703
8048.719317	1.089587	0.203537	18129.154297
8048.720311	0.552902	0.203537	18678.738281
8048.721200	0.101722	0.203537	18769.169922
8048.722198	0.097625	0.203537	18866.599609
8048.723255	0.097548	0.203537	18969.707031
8048.724152	0.097511	0.203537	19057.173828
8048.725008	0.097632	0.203537	19140.746094
8048.726092	0.097705	0.203537	19246.658203
8048.727087	0.097533	0.203537	19343.703125
8048.727964	0.097606	0.203537	19429.304687
8048.728953	0.097676	0.203537	19525.906250
8048.730005	0.097709	0.203537	19628.695312
8049.758650	0.990828	0.175242	420.110901
8049.759635	1.472256	0.175242	1870.282959
8049.760577	1.467228	0.175242	3252.411621
8049.761505	1.432152	0.175242	4581.448730
8049.762369	1.398962	0.175242	5790.152344
8049.763398	1.361345	0.175242	7190.976562
8049.764299	1.328862	0.175242	8388.281250
8049.765180	1.299100	0.175242	9532.789062
8049.766155	1.267841	0.175242	10768.933594
8049.767132	1.236562	0.175242	11977.054687
8049.768059	1.208544	0.175242	13097.375000
8049.768924	1.182444	0.175242	14120.189453
8049.769971	1.152814	0.175242	15327.185547
8049.770860	1.128798	0.175242	16330.686523
8049.771732	1.109912	0.175242	17298.529297
8049.772763	1.075994	0.175242	18407.878906
8049.773739	0.302417	0.175242	18703.037109
8049.774614	0.097976	0.175242	18788.765625
8049.775502	0.097749	0.175242	18875.566406
8049.776600	0.097676	0.175242	18982.814453
8049.777487	0.097570	0.175242	19069.359375
8049.778348	0.097617	0.175242	19153.408203
8049.779427	0.097723	0.175242	19258.851562
8049.780400	0.097610	0.175242	19353.826172
8049.781272	0.097610	0.175242	19438.941406
8049.782154	0.097621	0.175242	19525.042969
8050.777057	1.022208	0.197430	456.927124
8050.777926	1.472307	0.197430	1736.361938
8050.778789	1.472556	0.197430	3007.177734
8050.779852	1.434360	0.197430	4531.902832
8050.780729	1.399255	0.197430	5759.049805
8050.781608	1.366750	0.197430	6960.423340
8050.782521	1.333850	0.197430	8178.228516
8050.783543	1.299126	0.197430	9505.935547
8050.784441	1.269558	0.197430	10645.999023
8050.785317	1.242195	0.197430	11734.162109
8050.786328	1.212045	0.197430	12959.539062
8050.787265	1.183290	0.197430	14068.281250
8050.788152	1.157666	0.197430	15095.130859
8050.789176	1.130903	0.197430	16253.175781
8050.790169	1.108356	0.197430	17353.773437
8050.791058	1.085109	0.197430	18318.435547
8050.791923	0.484757	0.197430	18737.750000
8050.793020	0.098401	0.197430	18845.695312
8050.793918	0.097581	0.197430	18933.322266
8050.794781	0.097562	0.197430	19017.517578
8050.795762	0.097716	0.197430	19113.376953
8050.796758	0.097716	0.197430	19210.703125
8050.797650	0.097625	0.197430	19297.785156
8050.798513	0.097639	0.197430	19382.046875
8050.799596	0.097738	0.197430	19487.896484
8050.800523	0.097716	0.197430	19578.478516
8050.801384	0.097643	0.197430	19662.548828
8051.828149	1.012731	0.172725	425.346893
8051.829264	1.479767	0.172725	2075.286865
8051.830225	1.462324	0.172725	3480.580566
8051.831092	1.428622	0.172725	4719.195801
8051.832152	1.388584	0.172725	6191.094727
8051.833197	1.350634	0.172725	7602.506836
8051.834080	1.319440	0.172725	8767.572266
8051.835046	1.287711	0.172725	10011.500977
8051.836100	1.253222	0.172725	11332.396484
8051.837026	1.224540	0.172725	12466.320312
8051.837891	1.197817	0.172725	13502.432617
8051.838960	1.166909	0.172725	14749.858398
8051.839980	1.138063	0.172725	15910.682617
8051.840856	1.118924	0.172725	16890.861328
8051.841822	1.094648	0.172725	17948.291016
8051.842883	0.668723	0.172725	18657.806641
8051.843799	0.105293	0.172725	18754.255859
8051.844667	0.097555	0.172725	18838.933594
8051.845768	0.097665	0.172725	18946.462891
8051.846762	0.097540	0.172725	19043.417969
8051.847651	0.097650	0.172725	19130.228516
8051.848642	0.097712	0.172725	19227.060547
8051.849696	0.097683	0.172725	19330.017578
8051.850587	0.097606	0.172725	19416.984375
8051.851460	0.097720	0.172725	19502.292969
8051.852567	0.097749	0.172725	19610.501953
8052.846559	1.038428	0.194893	473.523041
8052.847442	1.473904	0.194893	1774.980103
8052.848441	1.467850	0.194893	3241.362549
8052.849502	1.427798	0.194893	4756.255859
8052.850419	1.392129	0.194893	6032.837891
8052.851292	1.358690	0.194893	7218.974609
8052.852413	1.320765	0.194893	8699.552734
8052.853387	1.287957	0.194893	9954.022461
8052.854261	1.259645	0.194893	11054.952148
8052.855302	1.227407	0.194893	12332.683594
8052.856350	1.196126	0.194893	13586.222656
8052.857252	1.169055	0.194893	14640.709961
8052.858193	1.142465	0.194893	15715.769531
8052.859249	1.118423	0.194893	16896.824219
8052.860193	1.094473	0.194893	17930.005859
8052.861060	0.860691	0.194893	18676.224609
8052.862123	0.114957	0.194893	18798.423828
8052.863132	0.097581	0.194893	18896.882812
8052.864005	0.097621	0.194893	18982.105469
8052.864983	0.097793	0.194893	19077.746094
8052.866022	0.097738	0.194893	19179.296875
8052.866946	0.097657	0.194893	19269.533203
8052.867802	0.097668	0.194893	19353.136719
8052.868829	0.097716	0.194893	19453.490234
8052.869846	0.097676	0.194893	19552.826172
8052.870730	0.097639	0.194893	19639.138672
8053.898275	1.063868	0.170324	562.786377
8053.899330	1.481173	0.170324	2125.423828
8053.900251	1.461782	0.170324	3471.725098
8053.901119	1.427095	0.170324	4710.443359
8053.902234	1.386017	0.170324	6255.852051
8053.903230	1.349667	0.170324	7600.120117
8053.904109	1.318488	0.170324	8759.070312
8053.905126	1.285470	0.170324	10066.393555
8053.906181	1.251423	0.170324	11386.645508
8053.907072	1.223405	0.170324	12476.699219
8053.907961	1.195810	0.170324	13539.774414
8053.909065	1.164551	0.170324	14825.438477
8053.910016	1.137426	0.170324	15907.129883
8053.910879	1.118840	0.170324	16872.689453
8053.911917	1.092206	0.170324	18006.398437
8053.912985	0.603585	0.170324	18651.027344
8053.913855	0.103224	0.170324	18740.832031
8053.914792	0.097683	0.170324	18832.361328
8053.915848	0.097661	0.170324	18935.492187
8053.916778	0.097551	0.170324	19026.214844
8053.917642	0.097625	0.170324	19110.562500
8053.918694	0.097709	0.170324	19213.351562
8053.919712	0.097643	0.170324	19312.751953
8053.920598	0.097632	0.170324	19399.253906
8053.921572	0.097698	0.170324	19494.412109
8053.922625	0.097540	0.170324	19597.121094
8054.913983	0.995120	0.195444	422.925812
8054.914985	1.473325	0.195444	1899.197510
8054.916038	1.463192	0.195444	3439.938965
8054.916927	1.428406	0.195444	4709.791992
8054.917790	1.393308	0.195444	5912.216797
8054.918913	1.354182	0.195444	7432.963379
8054.919877	1.321139	0.195444	8706.541016
8054.920740	1.290853	0.195444	9820.546875
8054.921770	1.258132	0.195444	11116.422852
8054.922819	1.225741	0.195444	12402.224609
8054.923703	1.198645	0.195444	13461.827148
8054.924635	1.170901	0.195444	14553.106445
8054.925719	1.140275	0.195444	15789.164062
8054.926657	1.119313	0.195444	16839.080078
8054.927528	1.097292	0.195444	17794.822266
8054.928577	0.785801	0.195444	18619.126953
8054.929599	0.108966	0.195444	18730.490234
8054.930483	0.097489	0.195444	18816.669922
8054.931445	0.097676	0.195444	18910.634766
8054.932499	0.097676	0.195444	19013.585937
8054.933429	0.097588	0.195444	19104.341797
8054.934290	0.097562	0.195444	19188.343750
8054.935379	0.097687	0.195444	19294.724609
8054.936368	0.097526	0.195444	19391.177734
8054.937262	0.097544	0.195444	19478.382812
8054.938242	0.097793	0.195444	19574.220703
8055.972388	1.067465	0.168156	565.756226
8055.973332	1.479727	0.168156	1962.618042
8055.974265	1.465371	0.168156	3329.809326
8055.975133	1.431482	0.168156	4572.335937
8055.976178	1.392250	0.168156	6027.236816
8055.977064	1.359690	0.168156	7231.921875
8055.977943	1.329067	0.168156	8400.171875
8055.978931	1.296017	0.168156	9680.636719
8055.979876	1.264574	0.168156	10875.659180
8055.980745	1.236768	0.168156	11950.410156
8055.981701	1.208049	0.168156	13105.305664
8055.982755	1.176394	0.168156	14345.224609
8055.983650	1.150767	0.168156	15375.161133
8055.984521	1.127900	0.168156	16357.562500
8055.985565	1.104474	0.168156	17510.632812
8055.986527	1.056215	0.168156	18526.710937
8055.987412	0.261105	0.168156	18757.789062
8055.988361	0.097932	0.168156	18850.726562
8055.989410	0.097698	0.168156	18953.210937
8055.990295	0.097592	0.168156	19039.580078
8055.991155	0.097672	0.168156	19123.578125
8055.992198	0.097698	0.168156	19225.476562
8055.993149	0.097544	0.168156	19318.240234
8055.994007	0.097676	0.168156	19402.046875
8055.995058	0.097789	0.168156	19504.824219
8055.996089	0.097709	0.168156	19605.562500
8056.979441	1.050535	0.202276	493.751312
8056.980322	1.474490	0.202276	1792.776733
8056.981243	1.469506	0.202276	3146.191406
8056.982125	1.435752	0.202276	4412.524414
8056.983123	1.398647	0.202276	5808.374512
8056.984052	1.363916	0.202276	7075.452148
8056.984932	1.332074	0.202276	8247.677734
8056.985988	1.297061	0.202276	9617.374023
8056.986891	1.267163	0.202276	10761.622070
8056.987768	1.239221	0.202276	11848.418945
8056.988730	1.210521	0.202276	13012.940430
8056.989714	1.181030	0.202276	14175.074219
8056.990635	1.154345	0.202276	15238.225586
8056.991502	1.130574	0.202276	16218.432617
8056.992568	1.108143	0.202276	17399.712891
8056.993442	1.084211	0.202276	18347.314453
8056.994326	0.452472	0.202276	18747.298828
8056.995214	0.100042	0.202276	18836.134766
8056.996242	0.097570	0.202276	18936.435547
8056.997167	0.097650	0.202276	19026.761719
8056.998026	0.097668	0.202276	19110.658203
8056.999129	0.097665	0.202276	19218.382812
8057.000037	0.097595	0.202276	19307.000000
8057.000911	0.097551	0.202276	19392.259766
8057.001926	0.097687	0.202276	19491.412109
8057.002910	0.097661	0.202276	19587.509766
8057.003802	0.097625	0.202276	19674.591797
8058.045461	1.070779	0.167472	545.026428
8058.046385	1.478474	0.167472	1911.136475
8058.047252	1.468206	0.167472	3184.070801
8058.048328	1.427926	0.167472	4720.519531
8058.049331	1.389357	0.167472	6114.043945
8058.050219	1.357123	0.167472	7319.168945
8058.051202	1.322904	0.167472	8619.583984
8058.052270	1.286821	0.167472	9993.909180
8058.053185	1.257111	0.167472	11144.165039
8058.054051	1.229205	0.167472	12208.657227
8058.055160	1.196832	0.167472	13535.944336
8058.056154	1.167363	0.167472	14696.303711
8058.057048	1.141875	0.167472	15717.139648
8058.058054	1.119448	0.167472	16843.304687
8058.059103	1.093319	0.167472	17990.197266
8058.059991	0.798069	0.167472	18698.882812
8058.060873	0.122303	0.167472	18806.753906
8058.061968	0.097690	0.167472	18913.724609
8058.062914	0.097632	0.167472	19006.083984
8058.063777	0.097646	0.167472	19090.353516
8058.064819	0.097841	0.167472	19192.302734
8058.065847	0.097727	0.167472	19292.765625
8058.066718	0.097570	0.167472	19377.748047
8058.067639	0.097709	0.167472	19467.738281
8058.068707	0.097632	0.167472	19572.009766
8058.069648	0.097603	0.167472	19663.853516
8059.046837	0.987224	0.206957	414.634155
8059.047822	1.471750	0.206957	1864.308350
8059.048882	1.463207	0.206957	3415.307617
8059.049800	1.427626	0.206957	4725.868164
8059.050670	1.392964	0.206957	5937.746582
8059.051790	1.353299	0.206957	7453.441895
8059.052763	1.319868	0.206957	8737.673828
8059.053630	1.290179	0.206957	9856.259766
8059.054699	1.255605	0.206957	11198.501953
8059.055732	1.224119	0.206957	12463.016602
8059.056615	1.197323	0.206957	13520.252930
8059.057547	1.169454	0.206957	14610.184570
8059.058621	1.139059	0.206957	15833.533203
8059.059557	1.118544	0.206957	16880.490234
8059.060422	1.096461	0.206957	17828.929687
8059.061499	0.738204	0.206957	18623.976562
8059.062515	0.106208	0.206957	18731.884766
8059.063386	0.097599	0.206957	18816.892578
8059.064340	0.097683	0.206957	18910.082031
8059.065402	0.097665	0.206957	19013.802734
8059.066312	0.097555	0.206957	19102.578125
8059.067178	0.097562	0.206957	19187.066406
8059.068227	0.097716	0.206957	19289.570312
8059.069232	0.097518	0.206957	19387.576172
8059.070119	0.097595	0.206957	19474.142578
8059.071080	0.097650	0.206957	19567.984375
8060.114952	1.063444	0.166614	530.658386
8060.115949	1.480521	0.166614	2006.738037
8060.116847	1.465759	0.166614	3322.989746
8060.117855	1.427355	0.166614	4761.763184
8060.118913	1.387108	0.166614	6229.323242
8060.119813	1.353992	0.166614	7447.915527
8060.120723	1.321274	0.166614	8650.275391
8060.121791	1.286045	0.166614	10023.771484
8060.122750	1.255258	0.166614	11227.563477
8060.123619	1.228055	0.166614	12294.743164
8060.124682	1.196440	0.166614	13566.559570
8060.125717	1.165858	0.166614	14773.222656
8060.126607	1.140406	0.166614	15788.184570
8060.127576	1.118979	0.166614	16872.476562
8060.128628	1.092367	0.166614	18021.646484
8060.129569	0.715323	0.166614	18694.765625
8060.130475	0.109032	0.166614	18793.548828
8060.131354	0.097614	0.166614	18879.351562
8060.132375	0.097789	0.166614	18979.195312
8060.133275	0.097650	0.166614	19067.080078
8060.134149	0.097650	0.166614	19152.425781
8060.135103	0.097903	0.166614	19245.824219
8060.136077	0.097687	0.166614	19340.970703
8060.136998	0.097577	0.166614	19430.839844
8060.137862	0.097566	0.166614	19515.136719
8060.138895	0.097665	0.166614	19616.025391
8061.116860	0.997943	0.203807	426.121704
8061.117894	1.476918	0.203807	1953.254639
8061.118925	1.461815	0.203807	3460.386230
8061.119817	1.427798	0.203807	4733.981934
8061.120772	1.391466	0.203807	6062.832031
8061.121841	1.352135	0.203807	7508.264648
8061.122773	1.319718	0.203807	8738.242187
8061.123643	1.289132	0.203807	9859.787109
8061.124731	1.255210	0.203807	11225.456055
8061.125731	1.224060	0.203807	12449.515625
8061.126630	1.197209	0.203807	13525.806641
8061.127621	1.168264	0.203807	14683.556641
8061.128663	1.138487	0.203807	15869.860352
8061.129576	1.118533	0.203807	16891.080078
8061.130444	1.095725	0.203807	17842.169922
8061.131539	0.714734	0.203807	18624.802734
8061.132537	0.104440	0.203807	18729.033203
8061.133414	0.097518	0.203807	18814.556641
8061.134432	0.097742	0.203807	18914.058594
8061.135475	0.097643	0.203807	19015.900391
8061.136350	0.097584	0.203807	19101.287109
8061.137226	0.097668	0.203807	19186.843750
8061.138325	0.097687	0.203807	19294.201172
8061.139264	0.097581	0.203807	19385.830078
8061.140137	0.097632	0.203807	19471.062500
8061.141158	0.097727	0.203807	19570.841797
8062.184499	1.050084	0.166573	575.446167
8062.185525	1.481173	0.166573	2095.129883
8062.186412	1.463320	0.166573	3393.094971
8062.187274	1.429526	0.166573	4625.346680
8062.188325	1.389620	0.166573	6085.837891
8062.189271	1.355186	0.166573	7367.843262
8062.190150	1.324600	0.166573	8532.166016
8062.191111	1.292388	0.166573	9774.150391
8062.192157	1.257986	0.166573	11090.003906
8062.193060	1.229835	0.166573	12200.544922
8062.194015	1.201458	0.166573	13347.936523
8062.195074	1.169868	0.166573	14586.827148
8062.196005	1.143311	0.166573	15651.249023
8062.196868	1.122484	0.166573	16619.953125
8062.197951	1.096915	0.166573	17807.912109
8062.198955	0.826011	0.166573	18637.226562
8062.199847	0.124698	0.166573	18748.457031
8062.200832	0.097657	0.166573	18844.650391
8062.201884	0.097672	0.166573	18947.402344
8062.202786	0.097570	0.166573	19035.410156
8062.203644	0.097661	0.166573	19119.203125
8062.204730	0.097672	0.166573	19225.275391
8062.205723	0.097577	0.166573	19322.169922
8062.206600	0.097573	0.166573	19407.742187
8062.207592	0.097701	0.166573	19504.662109
8062.208648	0.097668	0.166573	19607.800781
8063.187389	0.992483	0.203296	420.812744
8063.188406	1.474211	0.203296	1920.085815
8063.189321	1.466671	0.203296	3262.089844
8063.190246	1.431991	0.203296	4586.681641
8063.191118	1.397131	0.203296	5804.979980
8063.192161	1.360020	0.203296	7223.480469
8063.193039	1.328804	0.203296	8390.169922
8063.193916	1.299115	0.203296	9529.494141
8063.194889	1.267493	0.203296	10762.764648
8063.195841	1.236863	0.203296	11940.257812
8063.196762	1.208990	0.203296	13053.738281
8063.197641	1.182455	0.203296	14093.116211
8063.198688	1.152909	0.203296	15300.211914
8063.199577	1.129032	0.203296	16303.920898
8063.200442	1.110253	0.203296	17264.289062
8063.201522	1.077634	0.203296	18428.134766
8063.202473	0.306925	0.203296	18720.019531
8063.203343	0.098086	0.203296	18805.353516
8063.204287	0.097657	0.203296	18897.542969
8063.205337	0.097687	0.203296	19000.113281
8063.206222	0.097632	0.203296	19086.517578
8063.207081	0.097577	0.203296	19170.335937
8063.208099	0.097716	0.203296	19269.810547
8063.209062	0.097581	0.203296	19363.781250
8063.209935	0.097533	0.203296	19448.927734
8063.210829	0.097661	0.203296	19536.236328
8064.255455	1.037476	0.167335	476.201294
8064.256329	1.473343	0.167335	1763.903564
8064.257343	1.467821	0.167335	3252.273926
8064.258389	1.428395	0.167335	4746.375000
8064.259286	1.392715	0.167335	5995.640137
8064.260158	1.359280	0.167335	7180.932129
8064.261258	1.322003	0.167335	8635.135742
8064.262242	1.289136	0.167335	9903.645508
8064.263117	1.260542	0.167335	11006.620117
8064.264156	1.228107	0.167335	12282.623047
8064.265213	1.196711	0.167335	13547.546875
8064.266105	1.170011	0.167335	14591.197266
8064.267031	1.143534	0.167335	15650.109375
8064.268114	1.118562	0.167335	16861.511719
8064.269068	1.094879	0.167335	17906.027344
8064.269940	0.868638	0.167335	18663.478516
8064.271014	0.113741	0.167335	18785.636719
8064.272022	0.097570	0.167335	18883.986328
8064.272913	0.097625	0.167335	18970.970703
8064.273880	0.097705	0.167335	19065.451172
8064.274928	0.097588	0.167335	19167.722656
8064.275850	0.097592	0.167335	19257.701172
8064.276708	0.097592	0.167335	19341.435547
8064.277792	0.097709	0.167335	19447.351562
8064.278787	0.097614	0.167335	19544.476562
8064.279664	0.097636	0.167335	19630.103516
8065.256379	0.993039	0.204170	422.041779
8065.257406	1.475530	0.204170	1937.410889
8065.258449	1.462170	0.204170	3462.454590
8065.259340	1.427596	0.204170	4734.442871
8065.260274	1.392206	0.204170	6034.763184
8065.261339	1.352904	0.204170	7475.605957
8065.262281	1.320699	0.204170	8719.705078
8065.263148	1.290542	0.204170	9838.605469
8065.264205	1.256635	0.204170	11166.868164
8065.265226	1.225023	0.204170	12417.617187
8065.266113	1.198239	0.204170	13480.455078
8065.267084	1.169985	0.204170	14616.510742
8065.268141	1.139583	0.204170	15821.049805
8065.269054	1.119448	0.204170	16843.105469
8065.269915	1.097205	0.204170	17787.798828
8065.270977	0.773547	0.204170	18609.306641
8065.271994	0.108003	0.204170	18719.146484
8065.272886	0.097573	0.204170	18806.181641
8065.273877	0.097668	0.204170	18902.970703
8065.274925	0.097734	0.204170	19005.396484
8065.275833	0.097625	0.204170	19094.039062
8065.276697	0.097668	0.204170	19178.423828
8065.277802	0.097808	0.204170	19286.501953
8065.278763	0.097592	0.204170	19380.287109
8065.279639	0.097617	0.204170	19465.798828
8065.280626	0.097723	0.204170	19562.251953
8066.324999	1.056438	0.168301	526.106140
8066.325876	1.475896	0.168301	1820.467041
8066.326805	1.468008	0.168301	3184.246338
8066.327890	1.427435	0.168301	4733.013672
8066.328842	1.390986	0.168301	6057.232422
8066.329719	1.358661	0.168301	7248.778320
8066.330785	1.321410	0.168301	8657.401367
8066.331813	1.286968	0.168301	9980.404297
8066.332708	1.258103	0.168301	11106.406250
8066.333685	1.228191	0.168301	12306.348633
8066.334734	1.196213	0.168301	13561.176758
8066.335660	1.168374	0.168301	14643.090820
8066.336588	1.142512	0.168301	15703.341797
8066.337457	1.121668	0.168301	16678.070312
8066.338496	1.097000	0.168301	17817.853516
8066.339384	0.927382	0.168301	18641.369141
8066.340255	0.157947	0.168301	18778.941406
8066.341231	0.097657	0.168301	18874.255859
8066.342169	0.097665	0.168301	18965.865234
8066.343084	0.097668	0.168301	19055.232422
8066.343959	0.097701	0.168301	19140.720703
8066.344989	0.097668	0.168301	19241.318359
8066.345887	0.097625	0.168301	19328.984375
8066.346760	0.097628	0.168301	19414.212891
8066.347641	0.097636	0.168301	19500.230469
8066.348670	0.097643	0.168301	19600.705078
8067.327039	1.088178	0.205850	607.203064
8067.328095	1.480833	0.205850	2170.962158
8067.328993	1.461379	0.205850	3483.280762
8067.329857	1.426333	0.205850	4715.632324
8067.330977	1.385669	0.205850	6267.581543
8067.331942	1.350542	0.205850	7570.854492
8067.332804	1.320249	0.205850	8708.909180
8067.333865	1.284298	0.205850	10071.549805
8067.334928	1.250797	0.205850	11401.147461
8067.335810	1.223167	0.205850	12479.980469
8067.336748	1.195115	0.205850	13600.998047
8067.337818	1.163602	0.205850	14846.052734
8067.338758	1.136993	0.205850	15914.826172
8067.339634	1.118112	0.205850	16894.291016
8067.340682	1.091426	0.205850	18038.105469
8067.341711	0.593822	0.205850	18649.148437
8067.342605	0.102568	0.205850	18740.843750
8067.343566	0.097800	0.205850	18834.830078
8067.344618	0.097672	0.205850	18937.582031
8067.345540	0.097636	0.205850	19027.601562
8067.346399	0.097764	0.205850	19111.580078
8067.347475	0.097789	0.205850	19216.800781
8067.348462	0.097581	0.205850	19313.113281
8067.349352	0.097712	0.205850	19400.078125
8067.350343	0.097720	0.205850	19496.917969
8067.351369	0.097683	0.205850	19597.140625
8068.392889	0.991205	0.169454	418.288452
8068.393855	1.470509	0.169454	1838.800171
8068.394884	1.464291	0.169454	3345.555176
8068.395781	1.430325	0.169454	4628.556641
8068.396651	1.396033	0.169454	5843.104980
8068.397726	1.357284	0.169454	7302.185059
8068.398671	1.324145	0.169454	8553.501953
8068.399539	1.294325	0.169454	9676.976562
8068.400602	1.259919	0.169454	11016.270508
8068.401621	1.228542	0.169454	12268.155273
8068.402525	1.200967	0.169454	13353.829102
8068.403502	1.172593	0.169454	14499.452148
8068.404554	1.142395	0.169454	15701.251953
8068.405462	1.121389	0.169454	16719.472656
8068.406333	1.099486	0.169454	17677.125000
8068.407439	0.831083	0.169454	18596.302734
8068.408434	0.115668	0.169454	18711.392578
8068.409314	0.097478	0.169454	18797.173828
8068.410314	0.097701	0.169454	18894.875000
8068.411360	0.097617	0.169454	18996.982422
8068.412241	0.097588	0.169454	19082.957031
8068.413097	0.097581	0.169454	19166.486328
8068.414211	0.097657	0.169454	19275.277344
8068.415167	0.097559	0.169454	19368.542969
8068.416035	0.097533	0.169454	19453.201172
8068.417081	0.097709	0.169454	19555.404297
8069.396921	0.996211	0.205229	420.401001
8069.397980	1.477134	0.205229	1984.685669
8069.398860	1.466682	0.205229	3275.365967
8069.399720	1.433837	0.205229	4508.465820
8069.400744	1.394183	0.205229	5936.109375
8069.401723	1.358511	0.205229	7266.091309
8069.402602	1.327280	0.205229	8432.770508
8069.403472	1.296376	0.205229	9560.617187
8069.404601	1.261674	0.205229	10985.046875
8069.405502	1.233065	0.205229	12096.039062
8069.406370	1.206610	0.205229	13143.376953
8069.407457	1.174482	0.205229	14420.039062
8069.408432	1.146548	0.205229	15537.922852
8069.409314	1.124872	0.205229	16530.060547
8069.410214	1.103800	0.205229	17523.480469
8069.411291	1.001869	0.205229	18602.492187
8069.412174	0.191074	0.205229	18771.210937
8069.413051	0.097643	0.205229	18856.843750
8069.414141	0.097855	0.205229	18963.505859
8069.415096	0.097566	0.205229	19056.681641
8069.415955	0.097646	0.205229	19140.560547
8069.417006	0.097749	0.205229	19243.294922
8069.418039	0.097599	0.205229	19344.115234
8069.418913	0.097621	0.205229	19429.435547
8069.419831	0.097709	0.205229	19519.132812
8069.420895	0.097819	0.205229	19623.210937
8070.461417	1.049795	0.170227	486.055054
8070.462299	1.473830	0.170227	1785.973511
8070.463288	1.467744	0.170227	3237.572266
8070.464347	1.427567	0.170227	4749.365723
8070.465263	1.391803	0.170227	6024.257324
8070.466128	1.358646	0.170227	7199.486328
8070.467221	1.321725	0.170227	8644.131836
8070.468224	1.287931	0.170227	9935.926758
8070.469112	1.259282	0.170227	11054.169922
8070.470139	1.227788	0.170227	12315.108398
8070.471191	1.196250	0.170227	13573.563477
8070.472072	1.169582	0.170227	14603.965820
8070.472970	1.142838	0.170227	15630.234375
8070.474080	1.118189	0.170227	16871.423828
8070.475043	1.094238	0.170227	17925.175781
8070.475917	0.859409	0.170227	18676.298828
8070.476944	0.117081	0.170227	18796.541016
8070.477966	0.097533	0.170227	18896.218750
8070.478853	0.097551	0.170227	18982.746094
8070.479791	0.097603	0.170227	19074.296875
8070.480870	0.097646	0.170227	19179.658203
8070.481797	0.097518	0.170227	19270.058594
8070.482662	0.097595	0.170227	19354.478516
8070.483711	0.097716	0.170227	19456.982422
8070.484725	0.097551	0.170227	19555.898437
8070.485620	0.097584	0.170227	19643.236328
8071.468010	1.046001	0.202941	488.482452
8071.468885	1.473530	0.202941	1777.821411
8071.469891	1.467356	0.202941	3253.981445
8071.470937	1.427483	0.202941	4747.128906
8071.471848	1.392037	0.202941	6015.274902
8071.472708	1.359338	0.202941	7184.305664
8071.473782	1.322314	0.202941	8604.471680
8071.474777	1.288740	0.202941	9886.768555
8071.475669	1.260278	0.202941	11010.936523
8071.476659	1.229795	0.202941	12228.433594
8071.477720	1.197590	0.202941	13499.077148
8071.478617	1.170769	0.202941	14549.256836
8071.479499	1.144625	0.202941	15558.816406
8071.480611	1.119404	0.202941	16803.593750
8071.481584	1.095487	0.202941	17869.501953
8071.482458	0.902794	0.202941	18658.544922
8071.483504	0.123409	0.202941	18787.630859
8071.484538	0.097526	0.202941	18888.472656
8071.485427	0.097581	0.202941	18975.222656
8071.486361	0.097643	0.202941	19066.421875
8071.487412	0.097621	0.202941	19169.021484
8071.488346	0.097584	0.202941	19260.166016
8071.489208	0.097577	0.202941	19344.277344
8071.490247	0.097745	0.202941	19445.833984
8071.491260	0.097614	0.202941	19544.716797
8071.492136	0.097665	0.202941	19630.271484
