time (s)	coil I (A)	last det (V)	int current (uC)
6134.040668	1.135225	0.152071	628.914490
6134.041708	1.487611	0.152071	2176.030029
6134.042606	1.466949	0.152071	3493.350586
6134.043575	1.429896	0.152071	4878.919922
6134.044629	1.388935	0.152071	6342.857910
6134.045545	1.354951	0.152071	7583.993164
6134.046411	1.324167	0.152071	8730.722656
6134.047475	1.288660	0.152071	10101.856445
6134.048482	1.255906	0.152071	11366.553711
6134.049364	1.228744	0.152071	12450.305664
6134.050395	0.632944	0.152071	13102.871094
6134.051448	0.099888	0.152071	13208.052734
6134.052339	0.097467	0.152071	13294.895508
6134.053195	0.097522	0.152071	13378.374023
6134.054291	0.097430	0.152071	13485.158203
6134.055249	0.097365	0.152071	13578.433594
6134.056130	0.097408	0.152071	13664.250000
6134.057116	0.097646	0.152071	13760.529297
6134.058175	0.097449	0.152071	13863.727539
6134.059059	0.097386	0.152071	13949.817383
6134.059938	0.097375	0.152071	14035.410156
6135.036352	0.999525	0.166606	426.797241
6135.037217	1.475013	0.166606	1702.683838
6135.038284	1.472333	0.166606	3273.663086
6135.039167	1.438400	0.166606	4543.770020
6135.040035	1.403796	0.166606	5762.265137
6135.041123	1.364685	0.166606	7247.042480
6135.042047	1.331785	0.166606	8477.611328
6135.042919	1.301470	0.166606	9612.493164
6135.043901	1.269829	0.166606	10859.464844
6135.044937	1.236826	0.166606	12140.816406
6135.045818	1.038314	0.166606	13055.571289
6135.046691	0.169237	0.166606	13203.315430
6135.047747	0.097397	0.166606	13306.166992
6135.048686	0.097397	0.166606	13397.623047
6135.049558	0.097423	0.166606	13482.576172
6135.050500	0.097540	0.166606	13574.458984
6135.051529	0.097449	0.166606	13674.733398
6135.052425	0.097427	0.166606	13762.027344
6135.053370	0.097533	0.166606	13854.196289
6135.054407	0.097445	0.166606	13955.247070
6135.055338	0.097368	0.166606	14045.896484
6136.116154	0.998533	0.150927	423.377838
6136.117235	1.482513	0.150927	2025.974854
6136.118251	1.466554	0.150927	3515.993652
6136.119125	1.432427	0.150927	4767.934570
6136.120114	1.394806	0.150927	6147.397461
6136.121174	1.355695	0.150927	7584.433594
6136.122087	1.323102	0.150927	8792.425781
6136.122961	1.292219	0.150927	9921.825195
6136.124058	1.257693	0.150927	11301.514648
6136.125035	1.227191	0.150927	12500.480469
6136.125926	0.722036	0.150927	13143.814453
6136.126937	0.104890	0.150927	13249.858398
6136.127976	0.097405	0.150927	13351.061523
6136.128861	0.097434	0.150927	13437.291016
6136.129744	0.097493	0.150927	13523.376953
6136.130835	0.097518	0.150927	13629.769531
6136.131796	0.097419	0.150927	13723.389648
6136.132662	0.097394	0.150927	13807.732422
6136.133710	0.097537	0.150927	13909.951172
6136.134741	0.097493	0.150927	14010.465820
6136.135620	0.097515	0.150927	14096.181641
6137.102265	0.992373	0.165317	418.781403
6137.103210	1.475094	0.165317	1812.745117
6137.104274	1.469348	0.165317	3376.131348
6137.105214	1.433606	0.165317	4723.720703
6137.106078	1.399219	0.165317	5932.645508
6137.107159	1.359990	0.165317	7402.794922
6137.108164	1.324274	0.165317	8733.689453
6137.109060	1.294211	0.165317	9893.302734
6137.110057	1.261765	0.165317	11151.282227
6137.111111	1.229008	0.165317	12446.656250
6137.112013	0.752157	0.165317	13125.101562
6137.112870	0.111090	0.165317	13220.305664
6137.113978	0.097500	0.165317	13328.335937
6137.114941	0.097368	0.165317	13422.101562
6137.115814	0.097427	0.165317	13507.155273
6137.116824	0.097573	0.165317	13605.704102
6137.117869	0.097551	0.165317	13707.645508
6137.118733	0.097434	0.165317	13791.828125
6137.119598	0.097441	0.165317	13876.115234
6137.120707	0.097570	0.165317	13984.320312
6137.121665	0.097405	0.165317	14077.633789
6138.184207	1.063817	0.147350	531.908569
6138.185129	1.482759	0.147350	1899.012207
6138.185991	1.473472	0.147350	3169.144775
6138.187074	1.433408	0.147350	4721.525879
6138.188083	1.394791	0.147350	6128.870117
6138.188960	1.361712	0.147350	7323.090820
6138.189977	1.326888	0.147350	8672.536133
6138.191043	1.290707	0.147350	10048.429687
6138.191926	1.260524	0.147350	11161.471680
6138.192848	1.231776	0.147350	12297.168945
6138.193737	0.852535	0.147350	13055.073242
6138.194789	0.107007	0.147350	13167.644531
6138.195680	0.097306	0.147350	13254.343750
6138.196550	0.097346	0.147350	13339.035156
6138.197542	0.097522	0.147350	13435.777344
6138.198479	0.097500	0.147350	13527.134766
6138.199412	0.097361	0.147350	13617.972656
6138.200274	0.097496	0.147350	13702.014648
6138.201315	0.097365	0.147350	13803.371094
6138.202192	0.097460	0.147350	13888.843750
6138.203058	0.097412	0.147350	13973.203125
6139.173913	1.082168	0.170541	548.659180
6139.174860	1.484388	0.170541	1954.375122
6139.175725	1.473036	0.170541	3228.551270
6139.176797	1.432299	0.170541	4763.975586
6139.177833	1.392330	0.170541	6206.429687
6139.178722	1.359880	0.170541	7415.363281
6139.179696	1.326211	0.170541	8707.092773
6139.180744	1.289839	0.170541	10058.843750
6139.181671	1.259615	0.170541	11226.506836
6139.182538	1.231820	0.170541	12294.495117
6139.183621	0.696581	0.170541	13048.892578
6139.184622	0.101646	0.170541	13150.639648
6139.185494	0.097408	0.170541	13235.580078
6139.186470	0.097537	0.170541	13330.775391
6139.187535	0.097515	0.170541	13434.628906
6139.188437	0.097430	0.170541	13522.510742
6139.189303	0.097471	0.170541	13606.919922
6139.190404	0.097625	0.170541	13714.404297
6139.191381	0.097405	0.170541	13809.568359
6139.192259	0.097485	0.170541	13895.160156
6139.193252	0.097672	0.170541	13992.148437
6140.258245	1.006234	0.150533	436.705627
6140.259122	1.475929	0.150533	1731.095215
6140.260124	1.474003	0.150533	3208.045898
6140.261131	1.435378	0.150533	4653.471680
6140.262017	1.400914	0.150533	5894.681641
6140.263009	1.365004	0.150533	7248.765137
6140.264055	1.327222	0.150533	8637.039062
6140.264965	1.296079	0.150533	9816.470703
6140.265826	1.266676	0.150533	10907.079102
6140.266930	1.233483	0.150533	12268.843750
6140.267934	0.802764	0.150533	13074.818359
6140.268808	0.114492	0.150533	13174.884766
6140.269810	0.097551	0.150533	13272.630859
6140.270852	0.097438	0.150533	13374.161133
6140.271742	0.097394	0.150533	13460.841797
6140.272604	0.097526	0.150533	13544.909180
6140.273704	0.097573	0.150533	13652.240234
6140.274673	0.097379	0.150533	13746.600586
6140.275544	0.097423	0.150533	13831.456055
6140.276581	0.097456	0.150533	13932.517578
6140.277629	0.097445	0.150533	14034.639648
6141.239857	1.102093	0.167310	586.313721
6141.240899	1.486139	0.167310	2134.870361
6141.241797	1.467572	0.167310	3452.750000
6141.242744	1.431456	0.167310	4808.338867
6141.243807	1.390305	0.167310	6286.233398
6141.244740	1.355665	0.167310	7551.069336
6141.245610	1.324805	0.167310	8703.649414
6141.246672	1.289462	0.167310	10073.057617
6141.247691	1.256360	0.167310	11353.288086
6141.248582	1.228279	0.167310	12447.684570
6141.249581	0.658828	0.167310	13105.853516
6141.250627	0.100624	0.167310	13211.106445
6141.251534	0.097434	0.167310	13299.479492
6141.252388	0.097441	0.167310	13382.694336
6141.253474	0.097551	0.167310	13488.634766
6141.254471	0.097423	0.167310	13585.765625
6141.255342	0.097346	0.167310	13670.553711
6141.256327	0.097555	0.167310	13766.645508
6141.257382	0.097529	0.167310	13869.539062
6141.258283	0.097441	0.167310	13957.333984
6141.259144	0.097493	0.167310	14041.275391
6142.325693	1.018063	0.147552	434.712769
6142.326803	1.483656	0.147552	2081.570801
6142.327763	1.467023	0.147552	3489.912598
6142.328632	1.433342	0.147552	4735.486816
6142.329644	1.394275	0.147552	6146.493164
6142.330710	1.355720	0.147552	7591.690918
6142.331602	1.323845	0.147552	8772.560547
6142.332515	1.292124	0.147552	9952.269531
6142.333586	1.257583	0.147552	11299.140625
6142.334550	1.227839	0.147552	12482.777344
6142.335429	0.758452	0.147552	13149.457031
6142.336465	0.104150	0.147552	13257.356445
6142.337496	0.097401	0.147552	13357.777344
6142.338384	0.097383	0.147552	13444.252930
6142.339321	0.097584	0.147552	13535.689453
6142.340382	0.097614	0.147552	13639.257812
6142.341321	0.097354	0.147552	13730.672852
6142.342183	0.097401	0.147552	13814.632812
6142.343239	0.097474	0.147552	13917.565430
6142.344230	0.097365	0.147552	14014.053711
6142.345109	0.097408	0.147552	14099.675781
6143.310817	1.036564	0.175830	479.928955
6143.311693	1.478064	0.175830	1774.713013
6143.312664	1.473878	0.175830	3205.848633
6143.313736	1.433159	0.175830	4742.195312
6143.314658	1.396762	0.175830	6030.009277
6143.315594	1.362799	0.175830	7305.589355
6143.316466	1.330569	0.175830	8465.845703
6143.317521	1.295687	0.175830	9832.795898
6143.318406	1.266610	0.175830	10953.746094
6143.319275	1.238895	0.175830	12030.345703
6143.320262	0.984488	0.175830	13002.036133
6143.321200	0.144998	0.175830	13138.043945
6143.322116	0.097474	0.175830	13227.330078
6143.322992	0.097427	0.175830	13312.675781
6143.324023	0.097485	0.175830	13413.183594
6143.324916	0.097441	0.175830	13500.199219
6143.325787	0.097375	0.175830	13585.013672
6143.326709	0.097456	0.175830	13674.868164
6143.327712	0.097434	0.175830	13772.594727
6143.328586	0.097456	0.175830	13857.771484
6143.329458	0.097474	0.175830	13942.769531
6144.395796	1.048693	0.150903	542.174072
6144.396853	1.485026	0.150903	2111.846191
6144.397786	1.466528	0.150903	3480.117187
6144.398650	1.432562	0.150903	4717.851074
6144.399736	1.391678	0.150903	6229.213867
6144.400745	1.354336	0.150903	7595.738770
6144.401627	1.323274	0.150903	8762.866211
6144.402626	1.290278	0.150903	10051.854492
6144.403695	1.255536	0.150903	11394.022461
6144.404599	1.226818	0.150903	12503.065430
6144.405464	0.707073	0.150903	13114.683594
6144.406559	0.101012	0.150903	13225.291992
6144.407534	0.097408	0.150903	13320.265625
6144.408413	0.097445	0.150903	13405.919922
6144.409414	0.097592	0.150903	13503.609375
6144.410473	0.097478	0.150903	13606.838867
6144.411361	0.097401	0.150903	13693.331055
6144.412247	0.097518	0.150903	13779.732422
6144.413354	0.097544	0.150903	13887.713867
6144.414312	0.097397	0.150903	13981.020508
6144.415179	0.097555	0.150903	14065.600586
6145.379847	1.038054	0.162573	523.179321
6145.380819	1.484476	0.162573	1966.090332
6145.381698	1.471838	0.162573	3259.836426
6145.382586	1.436488	0.162573	4535.437500
6145.383711	1.395626	0.162573	6105.517090
6145.384607	1.361583	0.162573	7325.495605
6145.385473	1.330551	0.162573	8477.751953
6145.386553	1.294277	0.162573	9875.571289
6145.387531	1.262227	0.162573	11110.029297
6145.388410	1.234358	0.162573	12195.030273
6145.389303	0.906918	0.162573	13004.908203
6145.390408	0.114858	0.162573	13131.827148
6145.391287	0.097310	0.162573	13217.362305
6145.392144	0.097507	0.162573	13300.925781
6145.393164	0.097555	0.162573	13400.431641
6145.394148	0.097485	0.162573	13496.357422
6145.395020	0.097408	0.162573	13581.297852
6145.395882	0.097511	0.162573	13665.352539
6145.396998	0.097493	0.162573	13774.154297
6145.397898	0.097416	0.162573	13861.828125
6145.398757	0.097482	0.162573	13945.564453
6146.463740	1.060598	0.152382	512.268921
6146.464623	1.479591	0.152382	1818.747803
6146.465597	1.472545	0.152382	3253.006836
6146.466654	1.431932	0.152382	4766.559570
6146.467586	1.395912	0.152382	6067.549316
6146.468448	1.363605	0.152382	7242.976562
6146.469518	1.326288	0.152382	8662.104492
6146.470528	1.291981	0.152382	9967.005859
6146.471402	1.263248	0.152382	11071.084961
6146.472383	1.232413	0.152382	12280.082031
6146.473462	0.710541	0.152382	13046.755859
6146.474364	0.105260	0.152382	13141.700195
6146.475229	0.097441	0.152382	13225.987305
6146.476299	0.097548	0.152382	13330.363281
6146.477294	0.097430	0.152382	13427.306641
6146.478192	0.097515	0.152382	13514.875000
6146.479187	0.097474	0.152382	13611.862305
6146.480244	0.097485	0.152382	13714.904297
6146.481137	0.097452	0.152382	13801.929687
6146.482004	0.097537	0.152382	13886.494141
6146.483116	0.097515	0.152382	13994.930664
6147.448757	0.996493	0.181220	417.530518
6147.449805	1.481686	0.181220	1970.337158
6147.450753	1.469487	0.181220	3363.411133
6147.451630	1.435375	0.181220	4622.234863
6147.452681	1.395300	0.181220	6088.695312
6147.453697	1.357430	0.181220	7467.844727
6147.454594	1.326830	0.181220	8658.010742
6147.455571	1.293248	0.181220	9921.514648
6147.456630	1.258594	0.181220	11254.365234
6147.457554	1.229637	0.181220	12390.549805
6147.458433	0.820833	0.181220	13112.061523
6147.459519	0.104872	0.181220	13225.952148
6147.460506	0.097357	0.181220	13322.043945
6147.461401	0.097438	0.181220	13409.250977
6147.462406	0.097606	0.181220	13507.345703
6147.463441	0.097592	0.181220	13608.352539
6147.464336	0.097408	0.181220	13695.533203
6147.465196	0.097507	0.181220	13779.389648
6147.466293	0.097610	0.181220	13886.467773
6147.467255	0.097412	0.181220	13980.177734
6147.468124	0.097357	0.181220	14064.781250
6148.532765	1.078986	0.155081	561.072510
6148.533759	1.485300	0.155081	2037.461060
6148.534662	1.469304	0.155081	3364.242676
6148.535678	1.431017	0.155081	4818.155762
6148.536731	1.390474	0.155081	6282.324219
6148.537618	1.357357	0.155081	7486.299805
6148.538503	1.325328	0.155081	8659.215820
6148.539588	1.289293	0.155081	10058.098633
6148.540554	1.258066	0.155081	11273.390625
6148.541420	1.230934	0.155081	12339.378906
6148.542483	0.671565	0.155081	13053.251953
6148.543519	0.100767	0.155081	13157.646484
6148.544402	0.097357	0.155081	13243.613281
6148.545316	0.097434	0.155081	13332.667969
6148.546175	0.097474	0.155081	13416.398437
6148.547135	0.097456	0.155081	13509.956055
6148.548056	0.097412	0.155081	13599.672852
6148.548929	0.097485	0.155081	13684.777344
6148.549922	0.097463	0.155081	13781.558594
6148.550841	0.097445	0.155081	13871.110352
6148.551754	0.097284	0.155081	13959.930664
6149.518939	1.125385	0.166650	660.600769
6149.519994	1.486150	0.166650	2228.489014
6149.520881	1.465503	0.166650	3528.390137
6149.521782	1.429464	0.166650	4816.337402
6149.522879	1.388474	0.166650	6339.493652
6149.523824	1.353955	0.166650	7618.981445
6149.524697	1.322904	0.166650	8773.876953
6149.525730	1.287744	0.166650	10104.117187
6149.526777	1.254269	0.166650	11417.336914
6149.527667	1.226408	0.166650	12508.839844
6149.528631	0.642532	0.166650	13128.240234
6149.529685	0.099716	0.166650	13233.340820
6149.530611	0.097496	0.166650	13323.622070
6149.531480	0.097507	0.166650	13408.355469
6149.532549	0.097474	0.166650	13512.555664
6149.533554	0.097401	0.166650	13610.443359
6149.534445	0.097434	0.166650	13697.256836
6149.535406	0.097537	0.166650	13790.989258
6149.536467	0.097551	0.166650	13894.491211
6149.537381	0.097449	0.166650	13983.559570
6149.538240	0.097460	0.166650	14067.277344
6150.604276	1.034821	0.154130	493.609406
6150.605165	1.478815	0.154130	1808.275513
6150.606124	1.472618	0.154130	3220.516602
6150.607078	1.435884	0.154130	4590.349609
6150.607996	1.400647	0.154130	5876.143555
6150.608877	1.367963	0.154130	7081.318848
6150.609915	1.331481	0.154130	8463.395508
6150.610818	1.300038	0.154130	9637.330078
6150.611696	1.271089	0.154130	10753.345703
6150.612614	1.241590	0.154130	11893.125977
6150.613631	1.098578	0.154130	13010.379883
6150.614515	0.191422	0.154130	13179.596680
6150.615381	0.097526	0.154130	13264.053711
6150.616502	0.097529	0.154130	13373.383789
6150.617379	0.097416	0.154130	13458.817383
6150.618235	0.097577	0.154130	13542.342773
6150.619309	0.097511	0.154130	13647.069336
6150.620270	0.097489	0.154130	13740.755859
6150.621169	0.097438	0.154130	13828.352539
6150.622039	0.097599	0.154130	13913.263672
6150.623133	0.097504	0.154130	14019.932617
6151.587265	1.003224	0.181301	430.383057
6151.588133	1.474329	0.181301	1710.100342
6151.589246	1.469550	0.181301	3345.708984
6151.590213	1.432573	0.181301	4731.007324
6151.591080	1.399127	0.181301	5944.050781
6151.592149	1.359910	0.181301	7397.793945
6151.593183	1.323387	0.181301	8766.176758
6151.594086	1.292428	0.181301	9933.239258
6151.595021	1.261846	0.181301	11113.064453
6151.596088	1.228487	0.181301	12423.860352
6151.597039	0.711423	0.181301	13100.423828
6151.597898	0.108164	0.181301	13193.336914
6151.598967	0.097456	0.181301	13297.517578
6151.599991	0.097500	0.181301	13397.357422
6151.600872	0.097467	0.181301	13483.225586
6151.601835	0.097522	0.181301	13577.139648
6151.602871	0.097603	0.181301	13678.255859
6151.603789	0.097427	0.181301	13767.693359
6151.604645	0.097504	0.181301	13851.156250
6151.605699	0.097650	0.181301	13954.079102
6151.606707	0.097354	0.181301	14052.211914
6152.671164	1.004257	0.153413	427.813324
6152.672250	1.482341	0.153413	2037.635986
6152.673268	1.465236	0.153413	3529.245850
6152.674149	1.430797	0.153413	4789.778320
6152.675143	1.393348	0.153413	6174.766602
6152.676204	1.354786	0.153413	7612.194824
6152.677112	1.322007	0.153413	8812.577148
6152.677976	1.291575	0.153413	9928.498047
6152.679086	1.256913	0.153413	11323.670898
6152.680063	1.226360	0.153413	12521.824219
6152.680936	0.718931	0.153413	13149.451172
6152.681939	0.105322	0.153413	13255.089844
6152.682997	0.097467	0.153413	13358.209961
6152.683887	0.097416	0.153413	13444.910156
6152.684772	0.097559	0.153413	13531.250000
6152.685875	0.097544	0.153413	13638.840820
6152.686828	0.097463	0.153413	13731.723633
6152.687693	0.097419	0.153413	13815.991211
6152.688717	0.097632	0.153413	13915.965820
6152.689748	0.097430	0.153413	14016.416992
6152.690640	0.097493	0.153413	14103.380859
6153.659889	1.053893	0.169333	486.898499
6153.660770	1.477991	0.169333	1789.008301
6153.661635	1.474768	0.169333	3064.682617
6153.662743	1.435254	0.169333	4654.943848
6153.663651	1.399739	0.169333	5925.906738
6153.664520	1.367131	0.169333	7113.943848
6153.665516	1.331517	0.169333	8440.134766
6153.666528	1.296746	0.169333	9752.441406
6153.667427	1.267200	0.169333	10891.654297
6153.668295	1.238822	0.169333	11966.952148
6153.669401	0.937947	0.169333	13004.321289
6153.670316	0.131931	0.169333	13125.038086
6153.671190	0.097335	0.169333	13210.109375
6153.672172	0.097584	0.169333	13305.937500
6153.673181	0.097463	0.169333	13404.278320
6153.674069	0.097463	0.169333	13490.826172
6153.675051	0.097452	0.169333	13586.524414
6153.676086	0.097500	0.169333	13687.436523
6153.676987	0.097463	0.169333	13775.250977
6153.677843	0.097478	0.169333	13858.692383
6153.678930	0.097522	0.169333	13964.699219
6154.743735	0.991454	0.154561	417.402069
6154.744669	1.473929	0.154561	1794.052124
6154.745738	1.468678	0.154561	3364.068848
6154.746682	1.432580	0.154561	4716.424805
6154.747558	1.398270	0.154561	5941.309570
6154.748622	1.359298	0.154561	7387.602539
6154.749640	1.323611	0.154561	8735.038086
6154.750535	1.293142	0.154561	9892.400391
6154.751506	1.261882	0.154561	11117.688477
6154.752557	1.228791	0.154561	12409.148437
6154.753487	0.751322	0.154561	13107.877930
6154.754349	0.110577	0.154561	13203.195312
6154.755418	0.097375	0.154561	13307.290039
6154.756404	0.097372	0.154561	13403.298828
6154.757289	0.097390	0.154561	13489.489258
6154.758290	0.097485	0.154561	13587.072266
6154.759343	0.097518	0.154561	13689.758789
6154.760234	0.097343	0.154561	13776.491211
6154.761090	0.097478	0.154561	13859.932617
6154.762185	0.097445	0.154561	13966.634766
6154.763180	0.097324	0.154561	14063.472656
6155.726813	1.035597	0.176519	462.911804
6155.727677	1.475823	0.176519	1738.022705
6155.728782	1.468920	0.176519	3361.178955
6155.729755	1.431665	0.176519	4754.188965
6155.730623	1.397655	0.176519	5967.353516
6155.731646	1.360514	0.176519	7359.159180
6155.732692	1.323904	0.176519	8743.962891
6155.733578	1.293387	0.176519	9889.904297
6155.734462	1.263168	0.176519	11006.544922
6155.735585	1.229337	0.176519	12387.090820
6155.736542	0.743434	0.176519	13098.556641
6155.737399	0.109856	0.176519	13192.703125
6155.738423	0.097489	0.176519	13292.532227
6155.739462	0.097441	0.176519	13393.773437
6155.740348	0.097401	0.176519	13480.071289
6155.741282	0.097511	0.176519	13571.146484
6155.742326	0.097471	0.176519	13672.906250
6155.743260	0.097482	0.176519	13763.954102
6155.744126	0.097408	0.176519	13848.309570
6155.745190	0.097551	0.176519	13952.104492
6155.746212	0.097397	0.176519	14051.644531
6156.809667	1.002898	0.150613	432.248962
6156.810542	1.475350	0.150613	1723.180420
6156.811403	1.475577	0.150613	2993.652344
6156.812528	1.436005	0.150613	4609.157715
6156.813432	1.400493	0.150613	5875.203613
6156.814300	1.366362	0.150613	7061.206055
6156.815414	1.328602	0.150613	8541.269531
6156.816376	1.295845	0.150613	9787.872070
6156.817252	1.267266	0.150613	10897.997070
6156.818303	1.234010	0.150613	12194.941406
6156.819345	0.823323	0.150613	13052.843750
6156.820231	0.115148	0.150613	13154.864258
6156.821169	0.097434	0.150613	13246.257812
6156.822218	0.097562	0.150613	13348.600586
6156.823157	0.097365	0.150613	13440.025391
6156.824014	0.097599	0.150613	13523.667969
6156.825069	0.097489	0.150613	13626.518555
6156.826088	0.097471	0.150613	13725.840820
6156.826968	0.097504	0.150613	13811.644531
6156.827929	0.097482	0.150613	13905.324219
6156.828991	0.097434	0.150613	14008.798828
6157.800388	1.003107	0.171879	433.342102
6157.801418	1.477822	0.171879	1955.499023
6157.802477	1.466202	0.171879	3508.207520
6157.803364	1.431017	0.171879	4777.519531
6157.804234	1.397688	0.171879	5993.507812
6157.805128	1.363575	0.171879	7212.544434
6157.806161	1.327401	0.171879	8583.750000
6157.807062	1.296687	0.171879	9752.064453
6157.807943	1.267852	0.171879	10869.041992
6157.808944	1.236661	0.171879	12106.939453
6157.809873	0.999943	0.171879	13035.885742
6157.810807	0.145023	0.171879	13171.337891
6157.811673	0.097288	0.171879	13255.588867
6157.812701	0.097405	0.171879	13355.720703
6157.813580	0.097427	0.171879	13441.358398
6157.814452	0.097474	0.171879	13526.356445
6157.815412	0.097427	0.171879	13619.885742
6157.816366	0.097416	0.171879	13712.820312
6157.817236	0.097368	0.171879	13797.530273
6157.818172	0.097332	0.171879	13888.632812
6157.819233	0.097390	0.171879	13991.963867
6158.878225	1.067575	0.161961	536.989990
6158.879241	1.484454	0.161961	2045.195557
6158.880129	1.469099	0.161961	3349.755371
6158.881097	1.432386	0.161961	4736.305664
6158.882167	1.391202	0.161961	6224.892578
6158.883093	1.357123	0.161961	7481.588379
6158.883966	1.325105	0.161961	8638.405273
6158.885049	1.289161	0.161961	10034.567383
6158.886050	1.256602	0.161961	11292.425781
6158.886951	1.228942	0.161961	12399.702148
6158.887967	0.658499	0.161961	13068.736328
6158.889002	0.100690	0.161961	13172.950195
6158.889887	0.097306	0.161961	13259.066406
6158.890741	0.097452	0.161961	13342.291016
6158.891862	0.097529	0.161961	13451.621094
6158.892815	0.097386	0.161961	13544.430664
6158.893674	0.097401	0.161961	13628.098633
6158.894741	0.097544	0.161961	13732.177734
6158.895775	0.097482	0.161961	13832.973633
6158.896647	0.097533	0.161961	13918.022461
6158.897565	0.097430	0.161961	14007.463867
6159.869400	1.018510	0.177663	452.218231
6159.870271	1.475669	0.177663	1737.525879
6159.871309	1.470864	0.177663	3264.282959
6159.872356	1.431328	0.177663	4762.883789
6159.873239	1.396498	0.177663	5995.991211
6159.874188	1.361686	0.177663	7288.230957
6159.875265	1.324039	0.177663	8714.220703
6159.876209	1.291897	0.177663	9933.771484
6159.877076	1.262809	0.177663	11028.626953
6159.878131	1.229876	0.177663	12326.145508
6159.879172	0.690732	0.177663	13045.198242
6159.880048	0.105659	0.177663	13137.755859
6159.881021	0.097397	0.177663	13232.523437
6159.882079	0.097463	0.177663	13335.639648
6159.882994	0.097397	0.177663	13424.758789
6159.883860	0.097507	0.177663	13509.200195
6159.884946	0.097555	0.177663	13615.144531
6159.885936	0.097430	0.177663	13711.600586
6159.886827	0.097445	0.177663	13798.423828
6159.887825	0.097467	0.177663	13895.696289
6159.888865	0.097412	0.177663	13997.004883
6160.945155	1.056647	0.148740	520.926819
6160.946083	1.481971	0.148740	1896.196289
6160.946950	1.473047	0.148740	3173.328125
6160.948006	1.433229	0.148740	4686.817871
6160.949022	1.394279	0.148740	6103.404785
6160.949916	1.360935	0.148740	7320.081055
6160.950871	1.327804	0.148740	8588.133789
6160.951929	1.291926	0.148740	9954.992187
6160.952860	1.261088	0.148740	11129.064453
6160.953728	1.233054	0.148740	12199.355469
6160.954833	0.739717	0.148740	13016.742187
6160.955825	0.103088	0.148740	13119.005859
6160.956716	0.097423	0.148740	13205.809570
6160.957718	0.097610	0.148740	13303.614258
6160.958746	0.097416	0.148740	13403.757812
6160.959637	0.097419	0.148740	13490.558594
6160.960494	0.097500	0.148740	13574.116211
6160.961581	0.097562	0.148740	13680.166016
6160.962570	0.097397	0.148740	13776.492187
6160.963441	0.097471	0.148740	13861.389648
6160.964415	0.097522	0.148740	13956.375977
6161.943480	0.993300	0.165820	419.172424
6161.944527	1.481360	0.165820	1970.156250
6161.945566	1.465748	0.165820	3493.068848
6161.946463	1.430966	0.165820	4776.645020
6161.947430	1.394253	0.165820	6124.887695
6161.948501	1.354713	0.165820	7575.785156
6161.949430	1.322065	0.165820	8803.984375
6161.950299	1.291216	0.165820	9926.050781
6161.951397	1.256960	0.165820	11306.193359
6161.952391	1.225708	0.165820	12524.546875
6161.953287	0.680207	0.165820	13134.012695
6161.954298	0.104286	0.165820	13239.445312
6161.955349	0.097438	0.165820	13341.852539
6161.956242	0.097445	0.165820	13428.871094
6161.957099	0.097500	0.165820	13512.428711
6161.958201	0.097749	0.165820	13620.148437
6161.959156	0.097493	0.165820	13713.253906
6161.960012	0.097507	0.165820	13796.719727
6161.961090	0.097650	0.165820	13901.986328
6161.962139	0.097485	0.165820	14004.248047
6161.963007	0.097515	0.165820	14088.890625
6163.011599	1.066941	0.168563	530.269653
6163.012544	1.482711	0.168563	1931.431763
6163.013410	1.472135	0.168563	3206.300781
6163.014491	1.431533	0.168563	4753.788086
6163.015508	1.392502	0.168563	6169.962891
6163.016386	1.359869	0.168563	7363.928223
6163.017373	1.325479	0.168563	8672.175781
6163.018437	1.289344	0.168563	10044.038086
6163.019347	1.259410	0.168563	11190.101562
6163.020209	1.231707	0.168563	12251.833008
6163.021311	0.699353	0.168563	13022.519531
6163.022302	0.102012	0.168563	13123.613281
6163.023171	0.097372	0.168563	13208.229492
6163.024155	0.097573	0.168563	13304.241211
6163.025217	0.097485	0.168563	13407.770508
6163.026112	0.097328	0.168563	13494.878906
6163.026972	0.097496	0.168563	13578.725586
6163.028064	0.097562	0.168563	13685.263672
6163.029043	0.097434	0.168563	13780.651367
6163.029907	0.097467	0.168563	13864.863281
6163.030973	0.097551	0.168563	13968.852539
6164.014173	1.136638	0.179295	669.479858
6164.015217	1.485399	0.179295	2220.236572
6164.016105	1.464987	0.179295	3521.144531
6164.017016	1.429266	0.179295	4823.206055
6164.018094	1.388767	0.179295	6320.296875
6164.019042	1.353505	0.179295	7603.419434
6164.019908	1.323428	0.179295	8749.507812
6164.020966	1.287583	0.179295	10111.770508
6164.021998	1.254393	0.179295	11406.304687
6164.022884	1.226645	0.179295	12493.112305
6164.023850	0.662377	0.179295	13132.967773
6164.024906	0.100312	0.179295	13238.897461
6164.025825	0.097427	0.179295	13328.432617
6164.026687	0.097460	0.179295	13412.443359
6164.027729	0.097507	0.179295	13514.045898
6164.028747	0.097383	0.179295	13613.181641
6164.029632	0.097397	0.179295	13699.377930
6164.030607	0.097577	0.179295	13794.515625
6164.031665	0.097394	0.179295	13897.558594
6164.032578	0.097441	0.179295	13986.522461
6164.033440	0.097434	0.179295	14070.510742
6165.079484	0.991296	0.158146	419.318359
6165.080445	1.474519	0.158146	1836.331177
6165.081510	1.467817	0.158146	3399.556641
6165.082436	1.432083	0.158146	4725.665039
6165.083301	1.397725	0.158146	5934.696777
6165.084373	1.359097	0.158146	7391.648437
6165.085370	1.323926	0.158146	8711.602539
6165.086258	1.293563	0.158146	9860.287109
6165.087262	1.261644	0.158146	11126.977539
6165.088302	1.228832	0.158146	12404.962891
6165.089215	0.771482	0.158146	13109.326172
6165.090076	0.112830	0.158146	13206.472656
6165.091174	0.097489	0.158146	13313.515625
6165.092129	0.097438	0.158146	13406.568359
6165.092999	0.097548	0.158146	13491.434570
6165.093984	0.097643	0.158146	13587.612305
6165.095061	0.097489	0.158146	13692.608398
6165.095934	0.097482	0.158146	13777.709961
6165.096838	0.097456	0.158146	13865.810547
6165.097733	0.097460	0.158146	13953.037109
6165.098674	0.097471	0.158146	14044.756836
6166.086092	0.999877	0.166316	425.947479
6166.087076	1.475522	0.166316	1877.861572
6166.088148	1.466752	0.166316	3450.219238
6166.089072	1.430944	0.166316	4772.411133
6166.089939	1.395853	0.166316	5982.615723
6166.091039	1.356749	0.166316	7475.040039
6166.092031	1.321417	0.166316	8785.885742
6166.092920	1.291575	0.166316	9934.095703
6166.093927	1.259344	0.166316	11202.255859
6166.094977	1.226748	0.166316	12490.341797
6166.095866	0.716902	0.166316	13127.667969
6166.096730	0.108373	0.166316	13221.301758
6166.097838	0.097511	0.166316	13329.343750
6166.098777	0.097511	0.166316	13420.906250
6166.099634	0.097507	0.166316	13504.469727
6166.100673	0.097537	0.166316	13605.810547
6166.101718	0.097493	0.166316	13707.690430
6166.102603	0.097496	0.166316	13793.974609
6166.103524	0.097511	0.166316	13883.782227
6166.104599	0.097548	0.166316	13988.645508
6166.105543	0.097522	0.166316	14080.706055
6167.146930	1.002799	0.168986	422.178406
6167.148039	1.482755	0.168986	2066.553955
6167.148950	1.468129	0.168986	3404.019043
6167.149822	1.434379	0.168986	4654.797363
6167.150830	1.396219	0.168986	6062.186523
6167.151845	1.358522	0.168986	7441.085937
6167.152722	1.326797	0.168986	8604.686523
6167.153701	1.293849	0.168986	9871.364258
6167.154769	1.259572	0.168986	11216.586914
6167.155669	1.231187	0.168986	12324.654297
6167.156539	0.862493	0.168986	13075.022461
6167.157634	0.107897	0.168986	13193.168945
6167.158603	0.097390	0.168986	13287.540039
6167.159480	0.097361	0.168986	13372.925781
6167.160480	0.097617	0.168986	13470.542969
6167.161528	0.097496	0.168986	13572.718750
6167.162417	0.097456	0.168986	13659.357422
6167.163291	0.097518	0.168986	13744.588867
6167.164378	0.097533	0.168986	13850.607422
6167.165352	0.097339	0.168986	13945.415039
6167.166223	0.097441	0.168986	14030.286133
6168.155600	1.020476	0.179383	449.009491
6168.156472	1.475614	0.179383	1735.744873
6168.157470	1.471750	0.179383	3204.551758
6168.158480	1.433207	0.179383	4652.090820
6168.159378	1.398875	0.179383	5908.280273
6168.160248	1.364912	0.179383	7095.753906
6168.161359	1.327603	0.179383	8570.720703
6168.162280	1.296387	0.179383	9764.693359
6168.163152	1.267357	0.179383	10869.829102
6168.164206	1.234321	0.179383	12170.803711
6168.165184	0.910767	0.179383	13061.533203
6168.166060	0.129108	0.179383	13174.631836
6168.166916	0.097412	0.179383	13258.016602
6168.168024	0.097405	0.179383	13365.941406
6168.168917	0.097445	0.179383	13452.959961
6168.169784	0.097423	0.179383	13537.425781
6168.170800	0.097628	0.179383	13636.616211
6168.171798	0.097515	0.179383	13733.935547
6168.172673	0.097416	0.179383	13819.174805
6168.173676	0.097610	0.179383	13917.077148
6168.174709	0.097529	0.179383	14017.825195
6169.214955	1.048971	0.163838	483.575592
6169.215835	1.477401	0.163838	1783.688599
6169.216831	1.471410	0.163838	3249.212891
6169.217878	1.431694	0.163838	4748.196777
6169.218781	1.396600	0.163838	6009.327148
6169.219644	1.363290	0.163838	7185.846191
6169.220727	1.326138	0.163838	8622.052734
6169.221726	1.292047	0.163838	9912.807617
6169.222600	1.263516	0.163838	11017.120117
6169.223611	1.231853	0.163838	12262.523437
6169.224676	0.743965	0.163838	13054.845703
6169.225543	0.108530	0.163838	13148.941406
6169.226427	0.097386	0.163838	13235.031250
6169.227534	0.097577	0.163838	13343.048828
6169.228491	0.097423	0.163838	13436.283203
6169.229359	0.097467	0.163838	13520.884766
6169.230370	0.097621	0.163838	13619.579102
6169.231422	0.097529	0.163838	13722.179687
6169.232309	0.097485	0.163838	13808.649414
6169.233243	0.097588	0.163838	13899.796875
6169.234311	0.097551	0.163838	14003.981445
6170.227230	1.083424	0.177853	553.629700
6170.228231	1.484560	0.177853	2039.674805
6170.229125	1.468345	0.177853	3352.375000
6170.230113	1.430830	0.177853	4766.035156
6170.231176	1.390221	0.177853	6243.839844
6170.232081	1.355976	0.177853	7470.998535
6170.232949	1.324193	0.177853	8620.398437
6170.234069	1.288132	0.177853	10063.106445
6170.235046	1.256521	0.177853	11290.727539
6170.235919	1.229227	0.177853	12363.842773
6170.236976	0.639796	0.177853	13040.107422
6170.238011	0.099924	0.177853	13143.529297
6170.238904	0.097390	0.177853	13230.499023
6170.239834	0.097504	0.177853	13321.177734
6170.240888	0.097423	0.177853	13423.861328
6170.241825	0.097416	0.177853	13515.139648
6170.242686	0.097408	0.177853	13599.008789
6170.243745	0.097577	0.177853	13702.342773
6170.244765	0.097456	0.177853	13801.748047
6170.245645	0.097441	0.177853	13887.496094
6170.246630	0.097544	0.177853	13983.577148
6171.289017	0.993248	0.161357	419.150787
6171.290000	1.476357	0.161357	1870.410156
6171.291068	1.466997	0.161357	3437.163086
6171.291972	1.431801	0.161357	4731.510742
6171.292841	1.396567	0.161357	5945.127930
6171.293957	1.356892	0.161357	7459.419434
6171.294933	1.323387	0.161357	8751.045898
6171.295810	1.292772	0.161357	9884.806641
6171.296877	1.258396	0.161357	11227.515625
6171.297895	1.226876	0.161357	12476.475586
6171.298785	0.728957	0.161357	13125.248047
6171.299716	0.109047	0.161357	13226.770508
6171.300764	0.097570	0.161357	13329.023437
6171.301699	0.097489	0.161357	13420.175781
6171.302560	0.097507	0.161357	13504.129883
6171.303621	0.097632	0.161357	13607.716797
6171.304639	0.097544	0.161357	13707.016602
6171.305509	0.097493	0.161357	13791.834961
6171.306465	0.097646	0.161357	13885.184570
6171.307526	0.097566	0.161357	13988.702148
6171.308455	0.097449	0.161357	14079.232422
6172.293194	1.091763	0.181784	622.304687
6172.294259	1.484868	0.181784	2203.689453
6172.295162	1.464181	0.181784	3525.844727
6172.296023	1.429248	0.181784	4756.427246
6172.297141	1.388452	0.181784	6308.716797
6172.298109	1.352930	0.181784	7618.352539
6172.298975	1.322311	0.181784	8763.473633
6172.300052	1.285675	0.181784	10148.145508
6172.301100	1.252354	0.181784	11460.612305
6172.301994	1.224247	0.181784	12555.088867
6172.302950	0.598085	0.181784	13126.857422
6172.304008	0.098958	0.181784	13231.554687
6172.304944	0.097408	0.181784	13322.728516
6172.305807	0.097482	0.181784	13406.855469
6172.306862	0.097636	0.181784	13509.861328
6172.307888	0.097636	0.181784	13610.035156
6172.308778	0.097496	0.181784	13696.806641
6172.309730	0.097650	0.181784	13789.769531
6172.310786	0.097581	0.181784	13892.814453
6172.311709	0.097471	0.181784	13982.780273
6172.312569	0.097504	0.181784	14066.633789
6173.357070	1.070775	0.162839	535.387573
6173.358030	1.482953	0.162839	1959.022339
6173.358954	1.469374	0.162839	3316.723633
6173.359835	1.435767	0.162839	4581.633789
6173.360882	1.395978	0.162839	6043.222656
6173.361795	1.362063	0.162839	7286.786133
6173.362672	1.330422	0.162839	8453.566406
6173.363545	1.299511	0.162839	9588.039062
6173.364603	1.266068	0.162839	10927.539062
6173.365494	1.237947	0.162839	12030.549805
6173.366372	1.117657	0.162839	13011.853516
6173.367394	0.182263	0.162839	13198.126953
6173.368301	0.097416	0.162839	13286.483398
6173.369204	0.097661	0.162839	13374.671875
6173.370081	0.097625	0.162839	13460.289062
6173.371107	0.097515	0.162839	13560.338867
6173.372003	0.097456	0.162839	13647.659180
6173.372879	0.097540	0.162839	13733.104492
6173.373840	0.097592	0.162839	13826.889648
6173.374809	0.097478	0.162839	13921.345703
6173.375687	0.097445	0.162839	14006.902344
6174.363203	1.121814	0.180584	615.875854
6174.364247	1.485081	0.180584	2166.300049
6174.365138	1.465609	0.180584	3472.157715
6174.366080	1.429636	0.180584	4818.875000
6174.367141	1.388881	0.180584	6292.477539
6174.368078	1.355153	0.180584	7562.255371
6174.368947	1.323754	0.180584	8712.597656
6174.370017	1.288074	0.180584	10090.835937
6174.371039	1.254877	0.180584	11373.320312
6174.371920	1.227345	0.180584	12454.611328
6174.372900	0.656657	0.180584	13098.134766
6174.373981	0.100104	0.180584	13206.346680
6174.374876	0.097386	0.180584	13293.507812
6174.375741	0.097449	0.180584	13377.800781
6174.376819	0.097496	0.180584	13482.901367
6174.377816	0.097478	0.180584	13580.086914
6174.378712	0.097419	0.180584	13667.375000
6174.379700	0.097555	0.180584	13763.758789
6174.380749	0.097632	0.180584	13866.174805
6174.381649	0.097397	0.180584	13953.832031
6174.382511	0.097419	0.180584	14037.807617
6175.429578	1.015247	0.168805	449.754211
6175.430686	1.483425	0.168805	2093.389648
6175.431592	1.467217	0.168805	3422.687988
6175.432459	1.433665	0.168805	4665.675293
6175.433549	1.391898	0.168805	6182.844238
6175.434524	1.356171	0.168805	7505.110352
6175.435405	1.324933	0.168805	8672.375977
6175.436309	1.293501	0.168805	9841.701172
6175.437392	1.259586	0.168805	11205.833008
6175.438271	1.231413	0.168805	12288.245117
6175.439158	0.867795	0.168805	13057.979492
6175.440251	0.110057	0.168805	13178.272461
6175.441202	0.097405	0.168805	13270.904297
6175.442059	0.097471	0.168805	13354.436523
6175.443088	0.097507	0.168805	13454.771484
6175.444146	0.097467	0.168805	13557.891602
6175.445030	0.097463	0.168805	13644.048828
6175.445972	0.097507	0.168805	13735.900391
6175.447023	0.097460	0.168805	13838.330078
6175.447960	0.097548	0.168805	13929.732422
6175.448825	0.097559	0.168805	14014.121094
6176.428983	1.013236	0.183875	429.612091
6176.430087	1.482393	0.183875	2066.173584
6176.431064	1.465565	0.183875	3498.030762
6176.431983	1.430193	0.183875	4812.377930
6176.432850	1.396359	0.183875	6023.020996
6176.433943	1.357225	0.183875	7506.468262
6176.434827	1.325541	0.183875	8678.246094
6176.435696	1.295090	0.183875	9803.679687
6176.436582	1.265222	0.183875	10924.666016
6176.437624	1.233212	0.183875	12209.672852
6176.438527	0.964504	0.183875	13080.620117
6176.439405	0.143137	0.183875	13206.294922
6176.440396	0.097445	0.183875	13302.863281
6176.441318	0.097463	0.183875	13392.724609
6176.442242	0.097507	0.183875	13482.821289
6176.443102	0.097427	0.183875	13566.608398
6176.444127	0.097434	0.183875	13666.478516
6176.445009	0.097478	0.183875	13752.454102
6176.445865	0.097570	0.183875	13835.973633
6176.446936	0.097599	0.183875	13940.501953
6176.447867	0.097496	0.183875	14031.271484
6177.499690	1.093341	0.158009	575.097412
6177.500710	1.484623	0.158009	2089.412598
6177.501609	1.466913	0.158009	3408.166992
6177.502583	1.430178	0.158009	4801.160645
6177.503645	1.389045	0.158009	6276.326660
6177.504568	1.355252	0.158009	7527.223633
6177.505430	1.323391	0.158009	8667.986328
6177.506549	1.287056	0.158009	10108.201172
6177.507536	1.254888	0.158009	11346.775391
6177.508435	1.227360	0.158009	12450.171875
6177.509433	0.634991	0.158009	13083.893555
6177.510475	0.100115	0.158009	13188.212891
6177.511360	0.097280	0.158009	13274.305664
6177.512224	0.097460	0.158009	13358.510742
6177.513333	0.097471	0.158009	13466.605469
6177.514289	0.097295	0.158009	13559.619141
6177.515148	0.097354	0.158009	13643.246094
6177.516192	0.097496	0.158009	13745.032227
6177.517219	0.097339	0.158009	13844.999023
6177.518091	0.097500	0.158009	13930.018555
6177.519009	0.097438	0.158009	14019.466797
6178.498492	0.991234	0.179174	418.300812
6178.499355	1.472615	0.179174	1689.167358
6178.500392	1.472069	0.179174	3215.703125
6178.501298	1.437323	0.179174	4517.917969
6178.502166	1.403577	0.179174	5736.222656
6178.503212	1.364817	0.179174	7163.821289
6178.504186	1.330331	0.179174	8459.563477
6178.505068	1.299401	0.179174	9605.634766
6178.505953	1.269800	0.179174	10729.407227
6178.507061	1.236753	0.179174	12099.729492
6178.507945	1.064535	0.179174	13040.778320
6178.508807	0.181014	0.179174	13196.812500
6178.509855	0.097474	0.179174	13298.965820
6178.510818	0.097456	0.179174	13392.816406
6178.511715	0.097588	0.179174	13480.352539
6178.512586	0.097526	0.179174	13565.296875
6178.513692	0.097515	0.179174	13673.148437
6178.514591	0.097405	0.179174	13760.715820
6178.515448	0.097482	0.179174	13844.257812
6178.516553	0.097639	0.179174	13952.149414
6178.517516	0.097467	0.179174	14046.009766
6179.570643	1.031686	0.171585	461.163513
6179.571530	1.476559	0.171585	1770.871338
6179.572532	1.471534	0.171585	3245.348633
6179.573593	1.431368	0.171585	4764.030273
6179.574494	1.395905	0.171585	6021.740234
6179.575368	1.361942	0.171585	7212.077637
6179.576492	1.323959	0.171585	8700.207031
6179.577453	1.291641	0.171585	9941.473633
6179.578328	1.262820	0.171585	11046.441406
6179.579370	1.230600	0.171585	12328.726562
6179.580397	0.715104	0.171585	13063.137695
6179.581274	0.107490	0.171585	13157.406250
6179.582204	0.097603	0.171585	13248.176758
6179.583269	0.097559	0.171585	13352.076172
6179.584212	0.097540	0.171585	13444.056641
6179.585071	0.097537	0.171585	13527.840820
6179.586129	0.097610	0.171585	13631.112305
6179.587148	0.097632	0.171585	13730.599609
6179.588016	0.097529	0.171585	13815.254883
6179.588981	0.097676	0.171585	13909.511719
6179.590051	0.097650	0.171585	14013.997070
6180.567503	1.015994	0.188032	442.973267
6180.568385	1.475629	0.188032	1744.477661
6180.569354	1.472721	0.188032	3171.544434
6180.570378	1.433734	0.188032	4639.688477
6180.571268	1.399519	0.188032	5885.260254
6180.572237	1.363832	0.188032	7206.813477
6180.573289	1.326478	0.188032	8602.268555
6180.574221	1.294362	0.188032	9808.613281
6180.575091	1.265248	0.188032	10909.378906
6180.576197	1.231348	0.188032	12271.249023
6180.577198	0.785859	0.188032	13057.894531
6180.578083	0.111588	0.188032	13156.650391
6180.579074	0.097408	0.188032	13253.182617
6180.580126	0.097423	0.188032	13355.671875
6180.581024	0.097493	0.188032	13443.220703
6180.581886	0.097401	0.188032	13527.180664
6180.583000	0.097471	0.188032	13635.762695
6180.583963	0.097456	0.188032	13729.613281
6180.584819	0.097537	0.188032	13813.104492
6180.585899	0.097493	0.188032	13918.396484
6180.586926	0.097485	0.188032	14018.513672
6181.640648	1.006718	0.158839	433.895264
6181.641522	1.474493	0.158839	1722.602539
6181.642569	1.470158	0.158839	3261.857422
6181.643591	1.431229	0.158839	4724.573730
6181.644486	1.396813	0.158839	5974.721191
6181.645451	1.361832	0.158839	7288.889160
6181.646520	1.323633	0.158839	8703.852539
6181.647451	1.291615	0.158839	9906.345703
6181.648319	1.262798	0.158839	11002.454102
6181.649409	1.229432	0.158839	12342.535156
6181.650410	0.714115	0.158839	13057.364258
6181.651301	0.106527	0.158839	13152.280273
6181.652293	0.097522	0.158839	13249.022461
6181.653332	0.097445	0.158839	13350.267578
6181.654231	0.097482	0.158839	13437.903320
6181.655090	0.097390	0.158839	13521.561523
6181.656188	0.097614	0.158839	13628.741211
6181.657155	0.097610	0.158839	13723.129883
6181.658028	0.097577	0.158839	13808.314453
6181.659037	0.097533	0.158839	13906.725586
6181.660086	0.097500	0.158839	14009.002930
6182.635602	1.121656	0.180511	646.074097
6182.636660	1.484795	0.180511	2216.987305
6182.637541	1.464635	0.180511	3507.330811
6182.638432	1.429098	0.180511	4780.657227
6182.639530	1.388405	0.180511	6305.125488
6182.640492	1.353168	0.180511	7606.873047
6182.641354	1.322695	0.180511	8747.036133
6182.642383	1.287777	0.180511	10072.158203
6182.643431	1.254086	0.180511	11386.440430
6182.644326	1.226408	0.180511	12484.075195
6182.645296	0.652650	0.180511	13117.145508
6182.646350	0.099822	0.180511	13222.357422
6182.647280	0.097474	0.180511	13313.008789
6182.648145	0.097507	0.180511	13397.352539
6182.649215	0.097595	0.180511	13501.779297
6182.650224	0.097397	0.180511	13600.053711
6182.651111	0.097482	0.180511	13686.519531
6182.652079	0.097581	0.180511	13780.977539
6182.653125	0.097500	0.180511	13882.962891
6182.654042	0.097408	0.180511	13972.286133
6182.654902	0.097474	0.180511	14056.114258
6183.710166	1.031122	0.168857	466.067017
6183.711059	1.477277	0.168857	1785.275146
6183.712047	1.471417	0.168857	3239.035400
6183.713091	1.431610	0.168857	4733.636230
6183.714006	1.396022	0.168857	6010.996094
6183.714870	1.362957	0.168857	7188.590820
6183.715987	1.324944	0.168857	8668.552734
6183.716945	1.292007	0.168857	9906.294922
6183.717822	1.263589	0.168857	11014.462891
6183.718872	1.231381	0.168857	12307.412109
6183.719915	0.721029	0.168857	13059.445312
6183.720802	0.107769	0.168857	13155.036133
6183.721665	0.097441	0.168857	13239.127930
6183.722560	0.097566	0.168857	13326.449219
6183.723606	0.097386	0.168857	13428.315430
6183.724500	0.097445	0.168857	13515.431641
6183.725375	0.097485	0.168857	13600.731445
6183.726369	0.097511	0.168857	13697.657227
6183.727306	0.097361	0.168857	13788.884766
6183.728236	0.097441	0.168857	13879.504883
6183.729097	0.097493	0.168857	13963.446289
6184.704450	1.000492	0.189716	429.211060
6184.705495	1.479335	0.189716	1975.115845
6184.706530	1.465177	0.189716	3491.573975
6184.707414	1.430790	0.189716	4756.392090
6184.708369	1.394066	0.189716	6087.725586
6184.709448	1.354713	0.189716	7549.460937
6184.710389	1.321051	0.189716	8792.570312
6184.711254	1.291674	0.189716	9909.868164
6184.712294	1.257986	0.189716	11218.173828
6184.713316	1.226169	0.189716	12471.319336
6184.714217	0.718590	0.189716	13118.768555
6184.715188	0.107406	0.189716	13223.059570
6184.716245	0.097581	0.189716	13326.202148
6184.717162	0.097408	0.189716	13415.525391
6184.718028	0.097467	0.189716	13499.931641
6184.719120	0.097456	0.189716	13606.353516
6184.720111	0.097463	0.189716	13702.939453
6184.720999	0.097394	0.189716	13789.424805
6184.721987	0.097544	0.189716	13885.797852
6184.723051	0.097493	0.189716	13989.530273
6184.723955	0.097467	0.189716	14077.640625
6185.780680	1.001539	0.164974	438.674225
6185.781551	1.474446	0.164974	1722.916504
6185.782501	1.473340	0.164974	3122.589355
6185.783488	1.436426	0.164974	4540.341797
6185.784403	1.401288	0.164974	5822.520508
6185.785284	1.368329	0.164974	7028.018555
6185.786301	1.332491	0.164974	8383.162109
6185.787220	1.300763	0.164974	9578.563477
6185.788098	1.271627	0.164974	10695.051758
6185.788983	1.242689	0.164974	11794.832031
6185.790030	1.123396	0.164974	12971.027344
6185.790924	0.209861	0.164974	13158.642578
6185.791781	0.097485	0.164974	13242.187500
6185.792872	0.097496	0.164974	13348.555664
6185.793763	0.097430	0.164974	13435.366211
6185.794628	0.097416	0.164974	13519.630859
6185.795614	0.097471	0.164974	13615.737305
6185.796619	0.097430	0.164974	13713.655273
6185.797513	0.097416	0.164974	13800.745117
6185.798376	0.097471	0.164974	13884.862305
6185.799468	0.097408	0.164974	13991.232422
6186.775076	1.081765	0.183323	576.580811
6186.776141	1.483850	0.183323	2156.881104
6186.777055	1.464573	0.183323	3495.500488
6186.777925	1.429622	0.183323	4739.271484
6186.779032	1.388386	0.183323	6276.214844
6186.780003	1.352933	0.183323	7589.913086
6186.780874	1.322347	0.183323	8741.677734
6186.781929	1.286708	0.183323	10099.154297
6186.782973	1.253518	0.183323	11407.827148
6186.783867	1.225364	0.183323	12503.302734
6186.784802	0.658770	0.183323	13119.251953
6186.785876	0.099609	0.183323	13226.232422
6186.786822	0.097408	0.183323	13318.380859
6186.787687	0.097555	0.183323	13402.765625
6186.788752	0.097562	0.183323	13506.669922
6186.789758	0.097375	0.183323	13604.629883
6186.790640	0.097354	0.183323	13690.496094
6186.791609	0.097489	0.183323	13784.962891
6186.792654	0.097537	0.183323	13886.888672
6186.793576	0.097467	0.183323	13976.752930
6186.794433	0.097482	0.183323	14060.294922
6187.848778	1.103452	0.165389	627.864258
6187.849782	1.485227	0.165389	2119.032227
6187.850672	1.466580	0.165389	3424.288086
6187.851534	1.432053	0.165389	4658.717773
6187.852630	1.391572	0.165389	6183.880859
6187.853545	1.357987	0.165389	7426.438965
6187.854408	1.326237	0.165389	8570.981445
6187.855501	1.290381	0.165389	9981.367187
6187.856498	1.257803	0.165389	11235.396484
6187.857376	1.230242	0.165389	12315.548828
6187.858384	0.731067	0.165389	13052.463867
6187.859438	0.102583	0.165389	13160.585937
6187.860328	0.097445	0.165389	13247.312500
6187.861187	0.097456	0.165389	13331.027344
6187.862287	0.097581	0.165389	13438.366211
6187.863252	0.097588	0.165389	13532.538086
6187.864120	0.097504	0.165389	13617.170898
6187.865142	0.097614	0.165389	13716.931641
6187.866202	0.097614	0.165389	13820.402344
6187.867091	0.097533	0.165389	13907.109375
6187.868006	0.097628	0.165389	13996.439453
6188.845588	1.072511	0.184399	548.053162
6188.846546	1.482814	0.184399	1968.588623
6188.847413	1.470835	0.184399	3243.802490
6188.848471	1.430654	0.184399	4757.434570
6188.849503	1.390833	0.184399	6192.773926
6188.850384	1.358093	0.184399	7389.253906
6188.851336	1.325640	0.184399	8651.262695
6188.852391	1.289458	0.184399	10011.640625
6188.853325	1.258762	0.184399	11187.324219
6188.854256	1.230176	0.184399	12332.618164
6188.855131	0.870315	0.184399	13094.143555
6188.856174	0.110002	0.184399	13208.875977
6188.857051	0.097394	0.184399	13294.290039
6188.857922	0.097430	0.184399	13379.152344
6188.858877	0.097526	0.184399	13472.289062
6188.859856	0.097449	0.184399	13567.691406
6188.860763	0.097449	0.184399	13656.077148
6188.861638	0.097456	0.184399	13741.351562
6188.862695	0.097529	0.184399	13844.440430
6188.863591	0.097383	0.184399	13931.695312
6188.864461	0.097478	0.184399	14016.500977
6189.919689	1.018216	0.168704	443.942383
6189.920570	1.475196	0.168704	1743.590454
6189.921607	1.470615	0.168704	3268.618652
6189.922650	1.431116	0.168704	4761.272461
6189.923543	1.396051	0.168704	6007.946289
6189.924471	1.362122	0.168704	7271.995117
6189.925552	1.324219	0.168704	8703.475586
6189.926493	1.291974	0.168704	9919.222656
6189.927354	1.263545	0.168704	11007.134766
6189.928417	1.230923	0.168704	12315.605469
6189.929453	0.714917	0.168704	13056.259766
6189.930328	0.107626	0.168704	13150.432617
6189.931292	0.097687	0.168704	13244.602539
6189.932355	0.097716	0.168704	13348.474609
6189.933263	0.097676	0.168704	13437.164062
6189.934129	0.097731	0.168704	13521.798828
6189.935170	0.097819	0.168704	13623.627930
6189.936181	0.097617	0.168704	13722.319336
6189.937072	0.097720	0.168704	13809.387695
6189.938047	0.097775	0.168704	13904.717773
6189.939109	0.097698	0.168704	14008.472656
6190.914486	1.000214	0.187710	420.089722
6190.915581	1.482213	0.187710	2043.113159
6190.916523	1.466565	0.187710	3424.617187
6190.917411	1.432650	0.187710	4696.810547
6190.918401	1.395146	0.187710	6078.005859
6190.919418	1.356973	0.187710	7458.046875
6190.920311	1.325801	0.187710	8641.987305
6190.921179	1.295032	0.187710	9766.075195
6190.922282	1.260619	0.187710	11156.538086
6190.923197	1.231494	0.187710	12283.355469
6190.924074	0.938511	0.187710	13106.429687
6190.925065	0.133114	0.187710	13238.345703
6190.926072	0.097529	0.187710	13336.557617
6190.926946	0.097628	0.187710	13421.884766
6190.927815	0.097636	0.187710	13506.730469
6190.928877	0.097760	0.187710	13610.551758
6190.929805	0.097621	0.187710	13701.143555
6190.930671	0.097676	0.187710	13785.730469
6190.931738	0.097676	0.187710	13889.950195
6190.932748	0.097577	0.187710	13988.502930
6190.933638	0.097767	0.187710	14075.515625
6191.987132	0.994340	0.162803	422.594360
6191.988179	1.480063	0.162803	1972.220825
6191.989212	1.465349	0.162803	3485.926270
6191.990091	1.431211	0.162803	4743.960449
6191.991049	1.394363	0.162803	6079.759766
6191.992123	1.354951	0.162803	7534.977539
6191.993051	1.322091	0.162803	8761.877930
6191.993924	1.291600	0.162803	9889.445312
6191.995009	1.257111	0.162803	11253.410156
6191.996023	1.225638	0.162803	12496.207031
6191.996919	0.700272	0.162803	13123.651367
6191.997904	0.105677	0.162803	13227.744141
6191.998951	0.097661	0.162803	13329.995117
6191.999863	0.097654	0.162803	13419.055664
6192.000728	0.097581	0.162803	13503.462891
6192.001851	0.097786	0.162803	13613.276367
6192.002816	0.097562	0.162803	13707.423828
6192.003680	0.097581	0.162803	13791.733398
6192.004761	0.097690	0.162803	13897.336914
6192.005806	0.097646	0.162803	13999.377930
6192.006690	0.097592	0.162803	14085.648437
6192.986067	1.008626	0.183790	445.812469
6192.986934	1.474552	0.183790	1724.249146
6192.987956	1.471176	0.183790	3227.790527
6192.988988	1.432225	0.183790	4705.847168
6192.989876	1.397168	0.183790	5946.532227
6192.990785	1.363088	0.183790	7185.579590
6192.991883	1.324922	0.183790	8640.343750
6192.992823	1.292662	0.183790	9855.446289
6192.993697	1.264299	0.183790	10960.443359
6192.994733	1.231827	0.183790	12236.616211
6192.995771	0.761188	0.183790	13026.729492
6192.996666	0.109486	0.183790	13124.719727
6192.997629	0.097701	0.183790	13218.806641
6192.998686	0.097661	0.183790	13322.034180
6192.999602	0.097617	0.183790	13411.451172
6193.000472	0.097566	0.183790	13496.333984
6193.001533	0.097804	0.183790	13600.103516
6193.002550	0.097518	0.183790	13699.279297
6193.003437	0.097621	0.183790	13785.869141
6193.004413	0.097654	0.183790	13881.179687
6193.005468	0.097679	0.183790	13984.231445
6194.055675	1.065769	0.173365	517.963745
6194.056569	1.479331	0.173365	1840.485718
6194.057537	1.471029	0.173365	3264.441895
6194.058590	1.430460	0.173365	4770.716797
6194.059531	1.394095	0.173365	6082.560547
6194.060394	1.361517	0.173365	7257.549805
6194.061492	1.323578	0.173365	8710.837891
6194.062485	1.289828	0.173365	9991.636719
6194.063369	1.261227	0.173365	11106.561523
6194.064371	1.230703	0.173365	12339.726562
6194.065410	0.696002	0.173365	13062.873047
6194.066306	0.105428	0.173365	13157.336914
6194.067163	0.097537	0.173365	13240.925781
6194.068255	0.097657	0.173365	13347.567383
6194.069244	0.097548	0.173365	13444.041992
6194.070113	0.097581	0.173365	13528.839844
6194.071111	0.097727	0.173365	13626.371094
6194.072192	0.097628	0.173365	13731.907227
6194.073072	0.097621	0.173365	13817.813477
6194.073931	0.097588	0.173365	13901.641602
6194.075054	0.097665	0.173365	14011.319336
6195.057086	1.006941	0.188947	426.942963
6195.058152	1.481404	0.188947	2006.119385
6195.059152	1.465195	0.188947	3471.314697
6195.060048	1.430955	0.188947	4753.450195
6195.061056	1.392744	0.188947	6157.336426
6195.062102	1.354080	0.188947	7573.703613
6195.062989	1.322681	0.188947	8746.920898
6195.063886	1.291542	0.188947	9905.433594
6195.064983	1.257074	0.188947	11284.443359
6195.065936	1.227433	0.188947	12454.186523
6195.066806	0.783127	0.188947	13135.507812
6195.067853	0.105260	0.188947	13245.714844
6195.068887	0.097723	0.188947	13346.760742
6195.069755	0.097698	0.188947	13431.562500
6195.070698	0.097745	0.188947	13523.736328
6195.071751	0.097775	0.188947	13626.693359
6195.072675	0.097709	0.188947	13716.976562
6195.073546	0.097665	0.188947	13802.042969
6195.074581	0.097753	0.188947	13903.216797
6195.075602	0.097727	0.188947	14002.996094
6195.076494	0.097657	0.188947	14090.106445
6196.123069	0.997288	0.167045	424.844513
6196.124037	1.473999	0.167045	1851.675537
6196.125106	1.466755	0.167045	3419.636963
6196.126017	1.431460	0.167045	4723.696777
6196.126882	1.397150	0.167045	5932.231445
6196.127969	1.357581	0.167045	7407.921387
6196.128982	1.321930	0.167045	8747.036133
6196.129879	1.291542	0.167045	9905.548828
6196.130888	1.259055	0.167045	11175.935547
6196.131959	1.226360	0.167045	12489.367187
6196.132854	0.701671	0.167045	13117.363281
6196.133739	0.107424	0.167045	13212.433594
6196.134844	0.097687	0.167045	13320.377930
6196.135798	0.097632	0.167045	13413.518555
6196.136667	0.097632	0.167045	13498.360352
6196.137691	0.097859	0.167045	13598.567383
6196.138734	0.097694	0.167045	13700.461914
6196.139627	0.097786	0.167045	13787.784180
6196.140544	0.097683	0.167045	13877.359375
6196.141409	0.097723	0.167045	13961.889648
6196.142395	0.097749	0.167045	14058.270508
6197.127180	1.040343	0.185664	527.453918
6197.128249	1.483575	0.185664	2113.395996
6197.129192	1.464360	0.185664	3494.287842
6197.130059	1.430328	0.185664	4734.382812
6197.131135	1.389503	0.185664	6229.488281
6197.132131	1.353131	0.185664	7577.207031
6197.133034	1.321095	0.185664	8770.156250
6197.134016	1.288594	0.185664	10035.555664
6197.135069	1.254562	0.185664	11356.609375
6197.135973	1.226276	0.185664	12465.162109
6197.136838	0.730668	0.185664	13097.189453
6197.137927	0.102111	0.185664	13208.387695
6197.138920	0.097610	0.185664	13305.314453
6197.139796	0.097738	0.185664	13390.932617
6197.140787	0.097789	0.185664	13487.841797
6197.141842	0.097701	0.185664	13590.916992
6197.142720	0.097665	0.185664	13676.666992
6197.143581	0.097661	0.185664	13760.752930
6197.144680	0.097712	0.185664	13868.138672
6197.145648	0.097654	0.185664	13962.667969
6197.146513	0.097636	0.185664	14047.123047
6198.191036	0.992578	0.173756	420.853149
6198.192042	1.479247	0.173756	1908.975464
6198.192926	1.471626	0.173756	3209.893066
6198.193796	1.438733	0.173756	4461.590820
6198.194788	1.400944	0.173756	5851.326660
6198.195732	1.364908	0.173756	7139.800293
6198.196647	1.332708	0.173756	8359.227539
6198.197527	1.302078	0.173756	9505.055664
6198.198571	1.268481	0.173756	10829.350586
6198.199472	1.239954	0.173756	11946.548828
6198.200353	1.163232	0.173756	12971.356445
6198.201329	0.237715	0.173756	13203.366211
6198.202293	0.097452	0.173756	13297.310547
6198.203211	0.097595	0.173756	13386.903320
6198.204077	0.097474	0.173756	13471.316406
6198.205113	0.097646	0.173756	13572.478516
6198.205983	0.097555	0.173756	13657.351562
6198.206868	0.097449	0.173756	13743.593750
6198.207873	0.097617	0.173756	13841.699219
6198.208855	0.097515	0.173756	13937.458984
6198.209727	0.097581	0.173756	14022.548828
6199.199169	1.005802	0.183883	433.500671
6199.200034	1.473391	0.183883	1707.983887
6199.201161	1.467653	0.183883	3362.028320
6199.202136	1.430526	0.183883	4756.791016
6199.203008	1.397051	0.183883	5975.019531
6199.204073	1.357892	0.183883	7421.174316
6199.205104	1.321685	0.183883	8783.831055
6199.205993	1.291128	0.183883	9931.643555
6199.206939	1.260967	0.183883	11124.517578
6199.207990	1.228019	0.183883	12415.165039
6199.208932	0.722908	0.183883	13096.144531
6199.209791	0.109241	0.183883	13189.982422
6199.210863	0.097676	0.183883	13294.690430
6199.211875	0.097643	0.183883	13393.504883
6199.212751	0.097665	0.183883	13479.059570
6199.213724	0.097822	0.183883	13574.240234
6199.214797	0.097690	0.183883	13679.062500
6199.215701	0.097771	0.183883	13767.447266
6199.216562	0.097690	0.183883	13851.558594
6199.217627	0.097804	0.183883	13955.719727
6199.218628	0.097665	0.183883	14053.482422
6200.260624	1.042841	0.169442	534.977234
6200.261669	1.484183	0.169442	2085.948730
6200.262565	1.466525	0.169442	3399.954834
6200.263442	1.432584	0.169442	4656.331055
6200.264514	1.391865	0.169442	6148.410645
6200.265460	1.356943	0.169442	7432.079102
6200.266342	1.325467	0.169442	8601.141602
6200.267290	1.293981	0.169442	9827.834961
6200.268342	1.259601	0.169442	11152.934570
6200.269244	1.231465	0.169442	12263.715820
6200.270185	0.834972	0.169442	13049.424805
6200.271250	0.107875	0.169442	13164.311523
6200.272171	0.097566	0.169442	13254.169922
6200.273030	0.097555	0.169442	13337.969727
6200.274096	0.097800	0.169442	13442.224609
6200.275109	0.097577	0.169442	13541.070312
6200.275982	0.097559	0.169442	13626.239258
6200.276952	0.097617	0.169442	13720.927734
6200.277981	0.097709	0.169442	13821.469727
6200.278888	0.097701	0.169442	13910.084961
6200.279760	0.097654	0.169442	13995.239258
6201.268220	1.055757	0.184906	507.819031
6201.269099	1.477972	0.184906	1806.956787
6201.269966	1.474175	0.184906	3085.066406
6201.271021	1.434430	0.184906	4598.389648
6201.271992	1.397443	0.184906	5955.306641
6201.272876	1.364330	0.184906	7161.374023
6201.273805	1.331210	0.184906	8398.067383
6201.274865	1.295610	0.184906	9771.414062
6201.275749	1.266493	0.184906	10890.994141
6201.276613	1.239005	0.184906	11961.494141
6201.277658	0.979962	0.184906	12985.554687
6201.278607	0.138204	0.184906	13116.710937
6201.279482	0.097533	0.184906	13202.052734
6201.280394	0.097690	0.184906	13291.146484
6201.281494	0.097687	0.184906	13398.601562
6201.282380	0.097636	0.184906	13485.106445
6201.283290	0.097643	0.184906	13573.960937
6201.284366	0.097668	0.184906	13679.051758
6201.285315	0.097617	0.184906	13771.690430
6201.286184	0.097643	0.184906	13856.541992
6201.287236	0.097738	0.184906	13959.362305
6202.326474	1.011390	0.175001	446.023132
6202.327551	1.481938	0.175001	2042.070801
6202.328520	1.465529	0.175001	3462.167969
6202.329392	1.431786	0.175001	4710.685547
6202.330429	1.391902	0.175001	6154.087891
6202.331473	1.354087	0.175001	7567.754883
6202.332370	1.322007	0.175001	8753.594727
6202.333324	1.290634	0.175001	9984.859375
6202.334382	1.255829	0.175001	11313.526367
6202.335329	1.226393	0.175001	12474.919922
6202.336202	0.743591	0.175001	13124.075195
6202.337276	0.102561	0.175001	13234.225586
6202.338275	0.097515	0.175001	13331.642578
6202.339159	0.097566	0.175001	13417.890625
6202.340147	0.097742	0.175001	13514.458984
6202.341185	0.097570	0.175001	13615.736328
6202.342092	0.097679	0.175001	13704.332031
6202.342952	0.097654	0.175001	13788.314453
6202.344035	0.097808	0.175001	13894.240234
6202.345021	0.097577	0.175001	13990.451172
6202.345890	0.097570	0.175001	14075.239258
6203.340326	1.093905	0.183919	568.830566
6203.341360	1.483843	0.183919	2103.124023
6203.342253	1.466583	0.183919	3412.782715
6203.343194	1.430519	0.183919	4758.900879
6203.344264	1.389247	0.183919	6245.395020
6203.345212	1.355127	0.183919	7530.055664
6203.346076	1.323911	0.183919	8673.915039
6203.347147	1.288085	0.183919	10053.453125
6203.348163	1.255093	0.183919	11328.626953
6203.349056	1.227554	0.183919	12424.832031
6203.350026	0.684708	0.183919	13088.999023
6203.351069	0.101543	0.183919	13194.908203
6203.351978	0.097603	0.183919	13283.628906
6203.352839	0.097654	0.183919	13367.708984
6203.353920	0.097709	0.183919	13473.332031
6203.354922	0.097577	0.183919	13571.104492
6203.355797	0.097617	0.183919	13656.519531
6203.356798	0.097701	0.183919	13754.318359
6203.357833	0.097654	0.183919	13855.389648
6203.358727	0.097632	0.183919	13942.672852
6203.359582	0.097577	0.183919	14026.101562
6204.398070	1.055973	0.169035	498.419220
6204.398954	1.477346	0.169035	1804.393188
6204.399827	1.474248	0.169035	3091.411621
6204.400830	1.437685	0.169035	4533.410156
6204.401765	1.400310	0.169035	5842.700195
6204.402675	1.366717	0.169035	7086.413086
6204.403551	1.335201	0.169035	8256.049805
6204.404576	1.300133	0.169035	9588.686523
6204.405478	1.270345	0.169035	10734.538086
6204.406356	1.242667	0.169035	11825.599609
6204.407306	1.138660	0.169035	12907.326172
6204.408300	0.202284	0.169035	13108.396484
6204.409183	0.097515	0.169035	13194.501953
6204.410045	0.097709	0.169035	13278.726562
6204.411144	0.097676	0.169035	13386.072266
6204.412018	0.097551	0.169035	13471.332031
6204.412878	0.097643	0.169035	13555.304687
6204.413937	0.097756	0.169035	13658.829102
6204.414898	0.097559	0.169035	13752.583008
6204.415769	0.097463	0.169035	13837.473633
6204.416635	0.097683	0.169035	13922.067383
6205.408748	1.023735	0.177663	482.179382
6205.409635	1.476826	0.177663	1792.124023
6205.410590	1.471516	0.177663	3197.421875
6205.411563	1.434642	0.177663	4593.329102
6205.412471	1.399497	0.177663	5864.072266
6205.413351	1.367065	0.177663	7067.089844
6205.414391	1.330096	0.177663	8450.389648
6205.415294	1.298507	0.177663	9622.941406
6205.416172	1.269760	0.177663	10737.790039
6205.417084	1.240635	0.177663	11869.249023
6205.418116	1.086017	0.177663	12990.018555
6205.419011	0.180879	0.177663	13151.905273
6205.419872	0.097592	0.177663	13235.931641
6205.420960	0.097610	0.177663	13342.130859
6205.421855	0.097592	0.177663	13429.475586
6205.422722	0.097570	0.177663	13514.068359
6205.423729	0.097668	0.177663	13612.420898
6205.424728	0.097559	0.177663	13709.881836
6205.425619	0.097610	0.177663	13796.852539
6205.426475	0.097668	0.177663	13880.457031
6205.427567	0.097767	0.177663	13987.218750
6206.466643	1.117544	0.170948	638.117615
6206.467692	1.484476	0.170948	2195.333252
6206.468568	1.464701	0.170948	3478.411133
6206.469508	1.428281	0.170948	4820.995605
6206.470593	1.386903	0.170948	6325.785156
6206.471537	1.352538	0.170948	7602.581055
6206.472412	1.321165	0.170948	8758.599609
6206.473452	1.286462	0.170948	10096.520508
6206.474467	1.253844	0.170948	11369.171875
6206.475361	1.226279	0.170948	12465.465820
6206.476339	0.647780	0.170948	13098.994141
6206.477384	0.100133	0.170948	13203.632812
6206.478306	0.097570	0.170948	13293.591797
6206.479171	0.097654	0.170948	13378.062500
6206.480274	0.097709	0.170948	13485.834961
6206.481256	0.097621	0.170948	13581.698242
6206.482141	0.097738	0.170948	13668.196289
6206.483137	0.097742	0.170948	13765.546875
6206.484176	0.097606	0.170948	13866.959961
6206.485068	0.097584	0.170948	13954.004883
6206.485925	0.097639	0.170948	14037.681641
6207.478219	1.015485	0.183295	440.720367
6207.479093	1.474087	0.183295	1729.072266
6207.480174	1.468579	0.183295	3316.606445
6207.481161	1.430281	0.183295	4728.293457
6207.482061	1.396029	0.183295	5984.719727
6207.483041	1.359877	0.183295	7317.398926
6207.484111	1.322721	0.183295	8732.709961
6207.485013	1.291695	0.183295	9897.819336
6207.485879	1.262062	0.183295	10990.764648
6207.486999	1.228564	0.183295	12366.756836
6207.487979	0.724277	0.183295	13076.548828
6207.488846	0.108073	0.183295	13170.248047
6207.489889	0.097668	0.183295	13272.116211
6207.490915	0.097584	0.183295	13372.237305
6207.491807	0.097577	0.183295	13459.276367
6207.492743	0.097822	0.183295	13550.837891
6207.493801	0.097654	0.183295	13654.155273
6207.494739	0.097592	0.183295	13745.696289
6207.495603	0.097654	0.183295	13830.069336
6207.496661	0.097734	0.183295	13933.472656
6207.497679	0.097570	0.183295	14032.798828
6208.539064	1.004055	0.165421	422.707214
6208.540146	1.481587	0.165421	2025.784180
6208.541144	1.464360	0.165421	3487.215820
6208.542045	1.429794	0.165421	4775.459961
6208.543039	1.392030	0.165421	6159.137695
6208.544106	1.353362	0.165421	7603.174805
6208.545004	1.321186	0.165421	8789.600586
6208.545926	1.290311	0.165421	9979.267578
6208.546796	1.261513	0.165421	11076.783203
6208.547786	1.230758	0.165421	12295.233398
6208.548717	0.858728	0.165421	13094.708984
6208.549589	0.122618	0.165421	13201.631836
6208.550590	0.097749	0.165421	13299.478516
6208.551480	0.097698	0.165421	13386.429687
6208.552391	0.097603	0.165421	13475.345703
6208.553264	0.097848	0.165421	13560.766602
6208.554295	0.097665	0.165421	13661.458984
6208.555189	0.097614	0.165421	13748.725586
6208.556060	0.097646	0.165421	13833.775391
6208.557040	0.097636	0.165421	13929.458008
6208.558002	0.097694	0.165421	14023.439453
6209.543712	1.075100	0.180258	552.601501
6209.544633	1.481202	0.180258	1916.788818
6209.545497	1.471022	0.180258	3187.751465
6209.546585	1.430640	0.180258	4744.287109
6209.547587	1.391455	0.180258	6138.524902
6209.548472	1.359503	0.180258	7341.685059
6209.549475	1.324845	0.180258	8670.504883
6209.550521	1.289209	0.180258	10019.017578
6209.551421	1.259608	0.180258	11152.665039
6209.552282	1.231490	0.180258	12212.978516
6209.553389	0.723468	0.180258	13013.857422
6209.554373	0.103345	0.180258	13115.548828
6209.555252	0.097533	0.180258	13201.280273
6209.556246	0.097793	0.180258	13298.486328
6209.557303	0.097764	0.180258	13401.822266
6209.558170	0.097764	0.180258	13486.583008
6209.559079	0.097650	0.180258	13575.346680
6209.559951	0.097599	0.180258	13660.453125
6209.560953	0.097742	0.180258	13758.390625
6209.561880	0.097683	0.180258	13848.943359
6209.562751	0.097555	0.180258	13933.914062
6210.609700	1.082336	0.173498	557.403259
6210.610714	1.483788	0.173498	2061.964111
6210.611598	1.467546	0.173498	3359.274902
6210.612583	1.430739	0.173498	4768.552246
6210.613619	1.390254	0.173498	6208.855469
6210.614545	1.356226	0.173498	7464.720215
6210.615414	1.324823	0.173498	8615.991211
6210.616490	1.289465	0.173498	10003.456055
6210.617485	1.256858	0.173498	11254.029297
6210.618363	1.229528	0.173498	12333.554687
6210.619344	0.737183	0.173498	13056.730469
6210.620425	0.102634	0.173498	13167.677734
6210.621314	0.097577	0.173498	13254.423828
6210.622183	0.097753	0.173498	13339.371094
6210.623289	0.097712	0.173498	13447.441406
6210.624270	0.097544	0.173498	13543.131836
6210.625131	0.097632	0.173498	13627.192383
6210.626210	0.097709	0.173498	13732.620117
6210.627260	0.097548	0.173498	13835.044922
6210.628148	0.097610	0.173498	13921.722656
6210.629086	0.097767	0.173498	14013.428711
6211.612089	0.991073	0.186570	419.223846
6211.613118	1.475841	0.186570	1937.864258
6211.614109	1.466667	0.186570	3391.331543
6211.614993	1.432819	0.186570	4657.943359
6211.615998	1.394835	0.186570	6059.752930
6211.617055	1.355790	0.186570	7492.822754
6211.617938	1.323933	0.186570	8661.855469
6211.618809	1.292765	0.186570	9787.853516
6211.619928	1.258066	0.186570	11195.629883
6211.620890	1.228440	0.186570	12377.388672
6211.621771	0.829105	0.186570	13107.830078
6211.622805	0.108237	0.186570	13219.747070
6211.623854	0.097625	0.186570	13322.155273
6211.624743	0.097504	0.186570	13408.835937
6211.625682	0.097672	0.186570	13500.549805
6211.626734	0.097705	0.186570	13603.335937
6211.627667	0.097540	0.186570	13694.340820
6211.628528	0.097650	0.186570	13778.417969
6211.629582	0.097683	0.186570	13881.375977
6211.630596	0.097636	0.186570	13980.377930
6211.631486	0.097581	0.186570	14067.224609
6212.681167	1.015177	0.163629	443.632355
6212.682029	1.473618	0.163629	1713.891113
6212.683121	1.467781	0.163629	3316.707520
6212.684096	1.430911	0.163629	4711.845215
6212.684969	1.397699	0.163629	5932.036621
6212.686008	1.358599	0.163629	7343.620605
6212.687056	1.322329	0.163629	8729.421875
6212.687954	1.291567	0.163629	9889.249023
6212.688879	1.261260	0.163629	11055.914062
6212.689961	1.227751	0.163629	12384.340820
6212.690911	0.729243	0.163629	13077.122070
6212.691772	0.109149	0.163629	13171.099609
6212.692835	0.097701	0.163629	13274.956055
6212.693853	0.097628	0.163629	13374.341797
6212.694744	0.097709	0.163629	13461.400391
6212.695707	0.097690	0.163629	13555.476562
6212.696753	0.097709	0.163629	13657.679687
6212.697681	0.097668	0.163629	13748.316406
6212.698542	0.097679	0.163629	13832.417969
6212.699607	0.097690	0.163629	13936.458008
6212.700595	0.097760	0.163629	14033.044922
6213.680131	1.052816	0.183065	523.249634
6213.681018	1.479049	0.183065	1835.166138
6213.681882	1.472047	0.183065	3107.014648
6213.682997	1.431595	0.183065	4703.243652
6213.683967	1.393883	0.183065	6055.310059
6213.684841	1.361323	0.183065	7245.106445
6213.685872	1.325914	0.183065	8612.124023
6213.686926	1.290271	0.183065	9972.069336
6213.687801	1.261062	0.183065	11075.499023
6213.688714	1.232043	0.183065	12200.354492
6213.689811	0.730313	0.183065	13001.507812
6213.690749	0.105341	0.183065	13100.317383
6213.691618	0.097584	0.183065	13185.118164
6213.692650	0.097778	0.183065	13286.025391
6213.693679	0.097603	0.183065	13386.458008
6213.694564	0.097588	0.183065	13472.823242
6213.695516	0.097753	0.183065	13565.883789
6213.696571	0.097683	0.183065	13668.939453
6213.697506	0.097562	0.183065	13760.160156
6213.698368	0.097606	0.183065	13844.296875
6213.699441	0.097786	0.183065	13949.220703
6214.751184	1.013544	0.169550	443.932159
6214.752050	1.473812	0.169550	1720.253662
6214.753111	1.469447	0.169550	3279.336914
6214.754059	1.433419	0.169550	4638.218262
6214.754931	1.399307	0.169550	5858.413574
6214.755900	1.364429	0.169550	7180.544922
6214.756933	1.327101	0.169550	8551.439453
6214.757829	1.296482	0.169550	9713.086914
6214.758700	1.267570	0.169550	10817.140625
6214.759770	1.234167	0.169550	12137.700195
6214.760722	0.955887	0.169550	13047.705078
6214.761606	0.138149	0.169550	13169.829102
6214.762556	0.097533	0.169550	13262.485352
6214.763605	0.097603	0.169550	13364.870117
6214.764492	0.097625	0.169550	13451.462891
6214.765443	0.097709	0.169550	13544.383789
6214.766480	0.097676	0.169550	13645.673828
6214.767404	0.097511	0.169550	13735.774414
6214.768266	0.097625	0.169550	13819.926758
6214.769337	0.097844	0.169550	13924.717773
6214.770346	0.097614	0.169550	14023.209961
6215.749637	1.061528	0.184793	530.764160
6215.750575	1.481133	0.184793	1920.066772
6215.751448	1.470736	0.184793	3204.019287
6215.752504	1.430845	0.184793	4714.991211
6215.753532	1.391752	0.184793	6145.711914
6215.754422	1.358727	0.184793	7354.978516
6215.755405	1.324640	0.184793	8657.099609
6215.756471	1.288213	0.184793	10030.334961
6215.757398	1.257806	0.184793	11196.321289
6215.758330	1.229202	0.184793	12341.937500
6215.759207	0.840791	0.184793	13079.311523
6215.760253	0.105872	0.184793	13190.052734
6215.761145	0.097555	0.184793	13277.071289
6215.762018	0.097661	0.184793	13362.329102
6215.763013	0.097723	0.184793	13459.563477
6215.763947	0.097694	0.184793	13550.809570
6215.764862	0.097566	0.184793	13640.082031
6215.765722	0.097687	0.184793	13724.092773
6215.766758	0.097716	0.184793	13825.326172
6215.767655	0.097753	0.184793	13913.010742
6215.768529	0.097573	0.184793	13998.290039
6216.822310	1.089924	0.165679	562.400940
6216.823347	1.483883	0.165679	2101.187744
6216.824245	1.465891	0.165679	3417.557861
6216.825191	1.430116	0.165679	4770.447266
6216.826260	1.388914	0.165679	6255.195801
6216.827200	1.354039	0.165679	7527.992676
6216.828067	1.323164	0.165679	8675.175781
6216.829133	1.288044	0.165679	10048.231445
6216.830148	1.254939	0.165679	11321.994141
6216.831032	1.227620	0.165679	12407.209961
6216.832016	0.692820	0.165679	13088.944336
6216.833064	0.101547	0.165679	13195.365234
6216.833970	0.097504	0.165679	13283.703125
6216.834824	0.097694	0.165679	13367.133789
6216.835891	0.097668	0.165679	13471.345703
6216.836888	0.097698	0.165679	13568.750000
6216.837775	0.097705	0.165679	13655.414062
6216.838758	0.097782	0.165679	13751.534180
6216.839804	0.097646	0.165679	13853.672852
6216.840703	0.097654	0.165679	13941.463867
6216.841564	0.097654	0.165679	14025.543945
6217.816089	1.078052	0.186771	546.572266
6217.817028	1.481609	0.186771	1937.802979
6217.817921	1.470007	0.186771	3250.519531
6217.818872	1.433840	0.186771	4614.101562
6217.819922	1.393938	0.186771	6077.736328
6217.820816	1.360422	0.186771	7293.954102
6217.821782	1.326837	0.186771	8575.678711
6217.822831	1.290773	0.186771	9929.699219
6217.823762	1.260549	0.186771	11103.270508
6217.824624	1.233193	0.186771	12166.283203
6217.825698	0.791620	0.186771	13016.482422
6217.826715	0.105630	0.186771	13123.908203
6217.827589	0.097485	0.186771	13209.110352
6217.828570	0.097661	0.186771	13304.916016
6217.829617	0.097646	0.186771	13407.152344
6217.830518	0.097544	0.186771	13495.039062
6217.831374	0.097555	0.186771	13578.545898
6217.832409	0.097716	0.186771	13679.681641
6217.833420	0.097588	0.186771	13778.342773
6217.834306	0.097577	0.186771	13864.795898
6217.835285	0.097636	0.186771	13960.380859
6218.891808	1.049747	0.167532	553.216858
6218.892866	1.483425	0.167532	2122.680908
6218.893776	1.465052	0.167532	3455.878662
6218.894638	1.430424	0.167532	4688.903809
6218.895715	1.389877	0.167532	6185.800781
6218.896722	1.353248	0.167532	7548.521484
6218.897621	1.322003	0.167532	8737.001953
6218.898621	1.287975	0.167532	10024.976562
6218.899693	1.254097	0.167532	11369.368164
6218.900581	1.225748	0.167532	12457.833008
6218.901477	0.701169	0.167532	13086.081055
6218.902575	0.100756	0.167532	13196.710937
6218.903530	0.097632	0.167532	13289.949219
6218.904394	0.097610	0.167532	13374.284180
6218.905437	0.097771	0.167532	13476.259766
6218.906478	0.097665	0.167532	13577.928711
6218.907369	0.097566	0.167532	13664.860352
6218.908310	0.097723	0.167532	13756.818359
6218.909368	0.097764	0.167532	13860.251953
6218.910314	0.097657	0.167532	13952.635742
6218.911228	0.097632	0.167532	14041.871094
6219.886555	1.031257	0.187911	470.253357
6219.887431	1.475581	0.187911	1762.862305
6219.888435	1.470765	0.187911	3239.510742
6219.889488	1.431075	0.187911	4746.433105
6219.890379	1.395747	0.187911	5990.043945
6219.891248	1.362209	0.187911	7173.803711
6219.892338	1.324838	0.187911	8617.876953
6219.893318	1.291802	0.187911	9883.842773
6219.894202	1.263256	0.187911	11000.560547
6219.895210	1.231897	0.187911	12242.312500
6219.896270	0.752047	0.187911	13039.482422
6219.897159	0.108387	0.187911	13135.838867
6219.898047	0.097646	0.187911	13222.548828
6219.899129	0.097833	0.187911	13328.404297
6219.900089	0.097588	0.187911	13422.088867
6219.900951	0.097588	0.187911	13506.209961
6219.902007	0.097679	0.187911	13609.359375
6219.903040	0.097665	0.187911	13710.247070
6219.903925	0.097683	0.187911	13796.696289
6219.904855	0.097815	0.187911	13887.664062
6219.905912	0.097701	0.187911	13990.934570
6220.962332	1.046312	0.166432	548.267639
6220.963308	1.482989	0.166432	1995.665283
6220.964189	1.469103	0.166432	3289.944824
6220.965094	1.433544	0.166432	4587.301758
6220.966184	1.392894	0.166432	6105.556641
6220.967078	1.359419	0.166432	7320.876953
6220.967943	1.328998	0.166432	8470.459961
6220.969000	1.293171	0.166432	9837.341797
6220.969982	1.261370	0.166432	11076.006836
6220.970858	1.233680	0.166432	12156.710937
6220.971759	0.921764	0.166432	12987.220703
6220.972862	0.117462	0.166432	13116.781250
6220.973739	0.097529	0.166432	13202.314453
6220.974595	0.097636	0.166432	13285.890625
6220.975611	0.097734	0.166432	13385.188477
6220.976590	0.097577	0.166432	13480.715820
6220.977456	0.097628	0.166432	13565.261719
6220.978500	0.097771	0.166432	13667.334961
6220.979547	0.097753	0.166432	13769.681641
6220.980437	0.097654	0.166432	13856.593750
6220.981348	0.097749	0.166432	13945.643555
6221.954496	1.023124	0.188503	440.966370
6221.955617	1.482206	0.188503	2102.519043
6221.956574	1.464104	0.188503	3503.666504
6221.957440	1.430460	0.188503	4742.445312
6221.958506	1.389873	0.188503	6224.049805
6221.959542	1.351967	0.188503	7624.687012
6221.960426	1.320824	0.188503	8792.294922
6221.961403	1.288784	0.188503	10051.437500
6221.962458	1.254419	0.188503	11374.849609
6221.963376	1.225719	0.188503	12500.059570
6221.964240	0.735000	0.188503	13135.099609
6221.965311	0.102784	0.188503	13245.181641
6221.966318	0.097621	0.188503	13343.485352
6221.967185	0.097588	0.188503	13428.093750
6221.968155	0.097701	0.188503	13522.864258
6221.969220	0.097621	0.188503	13626.830078
6221.970131	0.097632	0.188503	13715.772461
6221.971040	0.097577	0.188503	13804.469727
6221.971909	0.097636	0.188503	13889.315430
6221.972944	0.097628	0.188503	13990.360352
6221.973836	0.097676	0.188503	14077.487305
6223.030713	0.993798	0.166557	418.388763
6223.031755	1.479452	0.166557	1959.977661
6223.032781	1.465056	0.166557	3463.125244
6223.033669	1.430911	0.166557	4733.773926
6223.034646	1.393934	0.166557	6095.647461
6223.035691	1.355109	0.166557	7511.735840
6223.036615	1.322758	0.166557	8733.963867
6223.037476	1.292065	0.166557	9846.431641
6223.038563	1.258085	0.166557	11213.969727
6223.039562	1.226972	0.166557	12439.713867
6223.040441	0.771478	0.166557	13117.843750
6223.041423	0.110599	0.166557	13226.452148
6223.042476	0.097654	0.166557	13329.281250
6223.043377	0.097643	0.166557	13417.257812
6223.044240	0.097628	0.166557	13501.510742
6223.045314	0.097646	0.166557	13606.382812
6223.046308	0.097577	0.166557	13703.374023
6223.047201	0.097625	0.166557	13790.552734
6223.048198	0.097771	0.166557	13888.030273
6223.049247	0.097603	0.166557	13990.415039
6223.050139	0.097603	0.166557	14077.476562
6224.026104	1.055259	0.187561	498.082123
6224.026982	1.477002	0.187561	1794.889771
6224.027859	1.473768	0.187561	3087.384766
6224.028849	1.437356	0.187561	4510.367187
6224.029787	1.399922	0.187561	5823.493652
6224.030719	1.365557	0.187561	7096.192383
6224.031590	1.333857	0.187561	8257.982422
6224.032632	1.299254	0.187561	9611.805664
6224.033532	1.269591	0.187561	10754.437500
6224.034412	1.241774	0.187561	11847.198242
6224.035362	1.121946	0.187561	12913.046875
6224.036351	0.199493	0.187561	13110.345703
6224.037221	0.097544	0.187561	13195.208984
6224.038114	0.097749	0.187561	13282.499023
6224.039224	0.097749	0.187561	13391.000000
6224.040096	0.097617	0.187561	13476.122070
6224.040961	0.097668	0.187561	13560.605469
6224.041995	0.097731	0.187561	13661.659180
6224.042960	0.097654	0.187561	13755.895508
6224.043836	0.097672	0.187561	13841.456055
6224.044721	0.097643	0.187561	13927.870117
6225.101390	1.114819	0.168302	637.676697
6225.102439	1.484161	0.168302	2194.562012
6225.103324	1.464016	0.168302	3490.216309
6225.104224	1.428556	0.168302	4775.916504
6225.105328	1.387709	0.168302	6307.947266
6225.106264	1.352992	0.168302	7574.347656
6225.107139	1.322395	0.168302	8731.443359
6225.108160	1.287484	0.168302	10045.964844
6225.109204	1.254283	0.168302	11355.436523
6225.110098	1.226276	0.168302	12451.726562
6225.111063	0.679270	0.168302	13107.222656
6225.112117	0.100657	0.168302	13213.314453
6225.113046	0.097522	0.168302	13303.912109
6225.113910	0.097625	0.168302	13388.259766
6225.114988	0.097822	0.168302	13493.711914
6225.116005	0.097661	0.168302	13593.033203
6225.116893	0.097621	0.168302	13679.720703
6225.117862	0.097723	0.168302	13774.415039
6225.118914	0.097716	0.168302	13877.211914
6225.119827	0.097617	0.168302	13966.335937
6225.120688	0.097595	0.168302	14050.365234
6226.094544	1.019905	0.185317	455.897461
6226.095659	1.483184	0.185317	2109.646973
6226.096562	1.465752	0.185317	3433.220947
6226.097430	1.431976	0.185317	4676.176270
6226.098471	1.392341	0.185317	6125.603516
6226.099460	1.356409	0.185317	7467.091797
6226.100335	1.324907	0.185317	8626.385742
6226.101237	1.293970	0.185317	9793.546875
6226.102329	1.259722	0.185317	11169.163086
6226.103214	1.231608	0.185317	12259.135742
6226.104103	0.873988	0.185317	13036.111328
6226.105204	0.111211	0.185317	13158.554687
6226.106143	0.097533	0.185317	13250.137695
6226.106998	0.097679	0.185317	13333.653320
6226.108001	0.097716	0.185317	13431.662109
6226.109048	0.097661	0.185317	13533.913086
6226.109933	0.097559	0.185317	13620.251953
6226.110856	0.097668	0.185317	13710.400391
6226.111924	0.097771	0.185317	13814.819336
6226.112859	0.097621	0.185317	13906.094727
6226.113727	0.097599	0.185317	13990.810547
6227.169733	1.006783	0.168857	433.923676
6227.170597	1.472780	0.168857	1706.405151
6227.171711	1.467495	0.168857	3341.194824
6227.172678	1.430837	0.168857	4724.814453
6227.173544	1.396985	0.168857	5934.603516
6227.174591	1.359133	0.168857	7357.616211
6227.175642	1.322098	0.168857	8747.141602
6227.176523	1.291370	0.168857	9884.837891
6227.177451	1.261930	0.168857	11055.909180
6227.178516	1.228740	0.168857	12364.517578
6227.179460	0.765157	0.168857	13086.826172
6227.180321	0.112324	0.168857	13183.537109
6227.181388	0.097606	0.168857	13287.682617
6227.182400	0.097672	0.168857	13386.526367
6227.183274	0.097614	0.168857	13471.840820
6227.184233	0.097833	0.168857	13565.663086
6227.185289	0.097767	0.168857	13668.905273
6227.186209	0.097687	0.168857	13758.777344
6227.187073	0.097625	0.168857	13843.125000
6227.188129	0.097753	0.168857	13946.351562
6227.189135	0.097650	0.168857	14044.587891
6228.164128	1.052219	0.187815	552.415100
6228.165187	1.482697	0.187815	2122.590820
6228.166117	1.463925	0.187815	3484.040527
6228.166982	1.429966	0.187815	4720.960937
6228.168049	1.389983	0.187815	6204.072754
6228.169053	1.352831	0.187815	7562.314941
6228.169934	1.322494	0.187815	8727.431641
6228.170924	1.289172	0.187815	10003.711914
6228.171995	1.254628	0.187815	11347.417969
6228.172890	1.226257	0.187815	12444.917969
6228.173762	0.729891	0.187815	13081.382812
6228.174850	0.101836	0.187815	13192.180664
6228.175835	0.097657	0.187815	13288.373047
6228.176714	0.097595	0.187815	13374.159180
6228.177709	0.097690	0.187815	13471.361328
6228.178769	0.097734	0.187815	13574.959961
6228.179655	0.097584	0.187815	13661.419922
6228.180520	0.097654	0.187815	13745.890625
6228.181637	0.097723	0.187815	13855.047852
6228.182591	0.097676	0.187815	13948.230469
6228.183464	0.097716	0.187815	14033.536133
6229.238296	1.072137	0.171661	548.934387
6229.239238	1.481305	0.171661	1944.323486
6229.240142	1.469037	0.171661	3272.333008
6229.241026	1.435140	0.171661	4540.997070
6229.242060	1.395809	0.171661	5984.263672
6229.242962	1.362166	0.171661	7212.937012
6229.243839	1.331254	0.171661	8380.446289
6229.244767	1.299532	0.171661	9586.412109
6229.245763	1.267192	0.171661	10848.535156
6229.246675	1.238265	0.171661	11977.833008
6229.247563	1.136470	0.171661	12987.018555
6229.248595	0.191946	0.171661	13185.106445
6229.249490	0.097423	0.171661	13272.299805
6229.250404	0.097636	0.171661	13361.539062
6229.251270	0.097698	0.171661	13446.145508
6229.252315	0.097639	0.171661	13548.178711
6229.253190	0.097687	0.171661	13633.654297
6229.254051	0.097712	0.171661	13717.785156
6229.255139	0.097654	0.171661	13824.032227
6229.256048	0.097533	0.171661	13912.689453
6229.256926	0.097646	0.171661	13998.422852
6230.234189	1.125179	0.186240	642.477417
6230.235253	1.484154	0.186240	2221.617187
6230.236138	1.463430	0.186240	3516.752930
6230.237032	1.428267	0.186240	4793.623047
6230.238103	1.388599	0.186240	6280.812012
6230.239053	1.353937	0.186240	7567.051758
6230.239916	1.323149	0.186240	8708.929687
6230.240950	1.288356	0.186240	10041.089844
6230.241989	1.255144	0.186240	11345.184570
6230.242868	1.227433	0.186240	12424.097656
6230.243808	0.719095	0.186240	13100.047852
6230.244878	0.101550	0.186240	13208.707031
6230.245810	0.097573	0.186240	13299.645508
6230.246679	0.097610	0.186240	13384.468750
6230.247732	0.097819	0.186240	13487.471680
6230.248753	0.097570	0.186240	13587.089844
6230.249639	0.097566	0.186240	13673.533203
6230.250583	0.097595	0.186240	13765.663086
6230.251634	0.097764	0.186240	13868.413086
6230.252565	0.097566	0.186240	13959.247070
6230.253426	0.097665	0.186240	14043.336914
6231.308755	1.027123	0.168857	458.096802
6231.309634	1.475116	0.168857	1754.723633
6231.310500	1.473995	0.168857	3031.203613
6231.311593	1.434221	0.168857	4598.807617
6231.312509	1.398633	0.168857	5879.955078
6231.313378	1.365714	0.168857	7066.760742
6231.314455	1.328514	0.168857	8497.570312
6231.315457	1.293904	0.168857	9794.061523
6231.316339	1.265204	0.168857	10909.971680
6231.317343	1.234160	0.168857	12149.068359
6231.318402	0.838396	0.168857	13036.929687
6231.319293	0.117371	0.168857	13141.506836
6231.320150	0.097599	0.168857	13225.149414
6231.321238	0.097679	0.168857	13331.424805
6231.322179	0.097603	0.168857	13423.268555
6231.323056	0.097610	0.168857	13508.872070
6231.324053	0.097906	0.168857	13606.484375
6231.325115	0.097672	0.168857	13710.211914
6231.325999	0.097668	0.168857	13796.550781
6231.326866	0.097745	0.168857	13881.295898
6231.327983	0.097760	0.168857	13990.494141
6232.303613	1.029470	0.189072	507.528809
6232.304678	1.482253	0.189072	2086.128662
6232.305619	1.464056	0.189072	3463.805664
6232.306538	1.428618	0.189072	4776.705566
6232.307422	1.394231	0.189072	6009.205566
6232.308466	1.356976	0.189072	7425.888672
6232.309369	1.325120	0.189072	8622.471680
6232.310249	1.294973	0.189072	9762.047852
6232.311196	1.264402	0.189072	10959.436523
6232.312183	1.233292	0.189072	12176.696289
6232.313113	0.947926	0.189072	13058.267578
6232.313981	0.140497	0.189072	13180.218750
6232.315017	0.097588	0.189072	13281.319336
6232.315893	0.097584	0.189072	13366.802734
6232.316757	0.097625	0.189072	13451.150391
6232.317621	0.097712	0.189072	13535.574219
6232.318680	0.097610	0.189072	13638.943359
6232.319578	0.097661	0.189072	13726.642578
6232.320457	0.097592	0.189072	13812.425781
6232.321448	0.097764	0.189072	13909.309570
6232.322388	0.097646	0.189072	14001.097656
6233.376207	1.016917	0.170618	441.341766
6233.377199	1.476508	0.170618	1906.037231
6233.378254	1.465258	0.170618	3451.883789
6233.379136	1.430698	0.170618	4713.759766
6233.380030	1.395417	0.170618	5961.262695
6233.381116	1.356288	0.170618	7434.191406
6233.382071	1.323080	0.170618	8697.732422
6233.382938	1.293409	0.170618	9819.118164
6233.383977	1.260084	0.170618	11128.345703
6233.385014	1.227847	0.170618	12401.623047
6233.385898	0.801292	0.170618	13109.964844
6233.386835	0.114635	0.170618	13217.377930
6233.387920	0.097577	0.170618	13323.249023
6233.388847	0.097533	0.170618	13413.662109
6233.389709	0.097548	0.170618	13497.748047
6233.390761	0.097771	0.170618	13600.603516
6233.391787	0.097687	0.170618	13700.830078
6233.392671	0.097581	0.170618	13787.090820
6233.393630	0.097668	0.170618	13880.754883
6233.394677	0.097610	0.170618	13982.952148
6233.395599	0.097544	0.170618	14072.887695
6234.374682	1.072500	0.186775	546.974976
6234.375586	1.479972	0.186775	1884.869629
6234.376451	1.470564	0.186775	3156.907471
6234.377553	1.430398	0.186775	4733.206055
6234.378554	1.391481	0.186775	6126.078125
6234.379440	1.359038	0.186775	7330.185547
6234.380457	1.323058	0.186775	8675.735352
6234.381535	1.287579	0.186775	10063.746094
6234.382410	1.258473	0.186775	11164.910156
6234.383330	1.229579	0.186775	12296.123047
6234.384414	0.651647	0.186775	13002.507812
6234.385360	0.102019	0.186775	13099.017578
6234.386226	0.097570	0.186775	13183.512695
6234.387258	0.097745	0.186775	13284.385742
6234.388288	0.097676	0.186775	13384.992187
6234.389174	0.097632	0.186775	13471.494141
6234.390109	0.097734	0.186775	13562.875977
6234.391171	0.097643	0.186775	13666.572266
6234.392109	0.097577	0.186775	13758.099609
6234.392970	0.097657	0.186775	13842.182617
6234.394041	0.097775	0.186775	13946.899414
6235.444234	1.060741	0.171150	531.431213
6235.445187	1.481543	0.171150	1943.341553
6235.446060	1.470242	0.171150	3226.862549
6235.447131	1.429944	0.171150	4758.332520
6235.448170	1.389668	0.171150	6202.197266
6235.449065	1.356628	0.171150	7416.379883
6235.450012	1.323937	0.171150	8670.148437
6235.451074	1.287872	0.171150	10037.869141
6235.452007	1.257612	0.171150	11211.221680
6235.452940	1.228682	0.171150	12357.582031
6235.453816	0.841362	0.171150	13094.615234
6235.454860	0.107029	0.171150	13206.353516
6235.455751	0.097544	0.171150	13293.265625
6235.456613	0.097610	0.171150	13377.405273
6235.457544	0.097595	0.171150	13468.266602
6235.458529	0.097614	0.171150	13564.416016
6235.459439	0.097544	0.171150	13653.180664
6235.460314	0.097632	0.171150	13738.608398
6235.461347	0.097665	0.171150	13839.496094
6235.462244	0.097617	0.171150	13927.058594
6235.463116	0.097643	0.171150	14012.203125
6236.445126	1.003055	0.186804	434.322998
6236.445999	1.473560	0.186804	1720.740601
6236.447031	1.469443	0.186804	3237.206055
6236.448070	1.430405	0.186804	4723.396973
6236.448958	1.395846	0.186804	5962.908203
6236.449922	1.361144	0.186804	7275.050781
6236.450996	1.322662	0.186804	8695.589844
6236.451933	1.291333	0.186804	9905.568359
6236.452800	1.262047	0.186804	10999.763672
6236.453901	1.228447	0.186804	12352.284180
6236.454909	0.689960	0.186804	13047.763672
6236.455796	0.105348	0.186804	13141.207031
6236.456777	0.097614	0.186804	13236.965820
6236.457810	0.097661	0.186804	13337.849609
6236.458707	0.097485	0.186804	13425.293945
6236.459569	0.097617	0.186804	13509.440430
6236.460653	0.097636	0.186804	13615.277344
6236.461649	0.097548	0.186804	13712.434570
6236.462526	0.097599	0.186804	13798.028320
6236.463535	0.097668	0.186804	13896.576172
6236.464579	0.097643	0.186804	13998.515625
6237.512127	0.995061	0.171770	424.891083
6237.512991	1.472208	0.171770	1696.879028
6237.514041	1.469839	0.171770	3240.209961
6237.515005	1.433302	0.171770	4621.913086
6237.515882	1.399534	0.171770	5849.304199
6237.516794	1.365037	0.171770	7094.217773
6237.517861	1.328525	0.171770	8511.753906
6237.518750	1.297463	0.171770	9665.199219
6237.519617	1.268884	0.171770	10765.322266
6237.520663	1.236398	0.171770	12058.593750
6237.521625	1.015565	0.171770	13035.567383
6237.522492	0.160642	0.171770	13174.843750
6237.523531	0.097606	0.171770	13276.256836
6237.524564	0.097756	0.171770	13377.239258
6237.525433	0.097712	0.171770	13462.151367
6237.526347	0.097738	0.171770	13551.484375
6237.527421	0.097727	0.171770	13656.443359
6237.528368	0.097712	0.171770	13748.976562
6237.529231	0.097731	0.171770	13833.318359
6237.530264	0.097994	0.171770	13934.546875
6237.531293	0.097745	0.171770	14035.126953
6238.515654	1.016785	0.182090	443.318115
6238.516529	1.473867	0.182090	1732.951904
6238.517537	1.470992	0.182090	3215.712402
6238.518466	1.435082	0.182090	4548.903320
6238.519390	1.399735	0.182090	5842.258789
6238.520263	1.367047	0.182090	7035.690918
6238.521304	1.330726	0.182090	8420.976562
6238.522192	1.300430	0.182090	9575.757812
6238.523061	1.271327	0.182090	10680.541016
6238.524047	1.240789	0.182090	11903.958984
6238.524984	1.132430	0.182090	12965.045898
6238.525869	0.224385	0.182090	13163.625977
6238.526819	0.097804	0.182090	13256.540039
6238.527859	0.097760	0.182090	13358.210937
6238.528752	0.097650	0.182090	13445.412109
6238.529614	0.097668	0.182090	13529.602539
6238.530674	0.097720	0.182090	13633.185547
6238.531623	0.097588	0.182090	13725.796875
6238.532494	0.097661	0.182090	13810.859375
6238.533426	0.097661	0.182090	13901.879883
6238.534466	0.097657	0.182090	14003.443359
6239.580707	1.084713	0.175283	557.542603
6239.581631	1.481440	0.175283	1926.393555
6239.582498	1.470245	0.175283	3201.096191
6239.583583	1.429801	0.175283	4752.430176
6239.584593	1.390748	0.175283	6157.085937
6239.585476	1.358580	0.175283	7356.712402
6239.586484	1.324025	0.175283	8691.329102
6239.587533	1.288191	0.175283	10042.641602
6239.588430	1.258685	0.175283	11171.682617
6239.589291	1.230571	0.175283	12231.204102
6239.590399	0.701144	0.175283	13008.071289
6239.591368	0.102583	0.175283	13107.474609
6239.592234	0.097566	0.175283	13191.966797
6239.593226	0.097756	0.175283	13288.941406
6239.594286	0.097822	0.175283	13392.632812
6239.595178	0.097551	0.175283	13479.648437
6239.596063	0.097738	0.175283	13566.146484
6239.597163	0.097789	0.175283	13673.714844
6239.598124	0.097628	0.175283	13767.535156
6239.598990	0.097592	0.175283	13852.049805
6239.600001	0.097786	0.175283	13950.911133
6240.586294	1.074357	0.186566	591.970520
6240.587355	1.483433	0.186566	2165.892578
6240.588262	1.463555	0.186566	3493.336670
6240.589124	1.429178	0.186566	4725.288574
6240.590226	1.388375	0.186566	6255.277832
6240.591220	1.351714	0.186566	7598.881348
6240.592107	1.320824	0.186566	8770.452148
6240.593119	1.287433	0.186566	10073.333984
6240.594177	1.253427	0.186566	11399.458984
6240.595051	1.225228	0.186566	12470.308594
6240.595933	0.693138	0.186566	13081.656250
6240.597029	0.100909	0.186566	13192.252930
6240.597994	0.097606	0.186566	13286.443359
6240.598860	0.097559	0.186566	13370.928711
6240.599863	0.097793	0.186566	13469.014648
6240.600910	0.097632	0.186566	13571.235352
6240.601798	0.097701	0.186566	13657.994141
6240.602705	0.097720	0.186566	13746.625977
6240.603796	0.097676	0.186566	13853.190430
6240.604747	0.097690	0.186566	13946.093750
6240.605607	0.097749	0.186566	14030.158203
6241.648060	0.996222	0.171246	425.386780
6241.648927	1.472131	0.171246	1701.724609
6241.650009	1.468290	0.171246	3290.414062
6241.651016	1.429995	0.171246	4730.418945
6241.651914	1.395209	0.171246	5983.316406
6241.652839	1.361455	0.171246	7242.662109
6241.653706	1.329536	0.171246	8395.370117
6241.654714	1.296405	0.171246	9702.146484
6241.655634	1.266299	0.171246	10867.141602
6241.656504	1.238485	0.171246	11944.624023
6241.657553	1.018019	0.171246	13012.525391
6241.658428	0.160488	0.171246	13152.953125
6241.659295	0.097419	0.171246	13237.416016
6241.660246	0.097595	0.171246	13330.229492
6241.661215	0.097595	0.171246	13424.798828
6241.662134	0.097610	0.171246	13514.501953
6241.663011	0.097614	0.171246	13600.109375
6241.664024	0.097668	0.171246	13699.047852
6241.664934	0.097617	0.171246	13787.879883
6241.665808	0.097489	0.171246	13873.084961
6241.666800	0.097672	0.171246	13969.975586
6242.658242	1.004169	0.180761	432.796692
6242.659149	1.472728	0.180761	1768.561279
6242.660225	1.467133	0.180761	3347.195801
6242.661181	1.430596	0.180761	4714.845215
6242.662107	1.395212	0.180761	6006.812012
6242.662973	1.363235	0.180761	7187.373535
6242.664033	1.326786	0.180761	8593.766602
6242.664914	1.295424	0.180761	9735.035156
6242.665797	1.266533	0.180761	10853.383789
6242.666691	1.237577	0.180761	11959.777344
6242.667719	0.991816	0.180761	12979.364258
6242.668654	0.144774	0.180761	13114.728516
6242.669528	0.097526	0.180761	13199.965820
6242.670535	0.097617	0.180761	13298.266602
6242.671462	0.097518	0.180761	13388.666016
6242.672394	0.097646	0.180761	13479.672852
6242.673257	0.097694	0.180761	13563.982422
6242.674291	0.097672	0.180761	13664.975586
6242.675173	0.097566	0.180761	13751.028320
6242.676030	0.097533	0.180761	13834.614258
6242.677128	0.097562	0.180761	13941.737305
6243.716618	1.063110	0.177454	531.555176
6243.717607	1.482638	0.177454	1997.884033
6243.718502	1.468275	0.177454	3311.990234
6243.719501	1.430387	0.177454	4740.946777
6243.720544	1.390972	0.177454	6191.730469
6243.721438	1.356973	0.177454	7404.864258
6243.722332	1.325321	0.177454	8589.701172
6243.723422	1.288938	0.177454	9994.643555
6243.724378	1.258055	0.177454	11197.344727
6243.725244	1.230813	0.177454	12263.228516
6243.726300	0.739124	0.177454	13043.743164
6243.727315	0.103608	0.177454	13148.905273
6243.728192	0.097559	0.177454	13234.463867
6243.729124	0.097679	0.177454	13325.500977
6243.730200	0.097698	0.177454	13430.624023
6243.731130	0.097566	0.177454	13521.360352
6243.731991	0.097504	0.177454	13605.310547
6243.733020	0.097614	0.177454	13705.754883
6243.734050	0.097456	0.177454	13806.134766
6243.734936	0.097588	0.177454	13892.597656
6243.735898	0.097632	0.177454	13986.519531
6244.727746	1.001671	0.187863	431.720245
6244.728617	1.472944	0.187863	1714.654785
6244.729661	1.469139	0.187863	3248.436523
6244.730673	1.430717	0.187863	4696.321777
6244.731571	1.396077	0.187863	5949.998535
6244.732540	1.360770	0.187863	7268.584961
6244.733611	1.323164	0.187863	8685.693359
6244.734523	1.291926	0.187863	9863.929687
6244.735392	1.262659	0.187863	10961.179687
6244.736509	1.228828	0.187863	12333.780273
6244.737507	0.717836	0.187863	13050.180664
6244.738402	0.106523	0.187863	13145.519531
6244.739398	0.097625	0.187863	13242.753906
6244.740446	0.097859	0.187863	13345.309570
6244.741340	0.097584	0.187863	13432.549805
6244.742217	0.097603	0.187863	13518.147461
6244.743314	0.097657	0.187863	13625.277344
6244.744255	0.097625	0.187863	13717.141602
6244.745112	0.097599	0.187863	13800.784180
6244.746152	0.097679	0.187863	13902.371094
6244.747201	0.097577	0.187863	14004.729492
6245.784017	1.020656	0.178598	453.171051
6245.784893	1.474321	0.178598	1744.676514
6245.785877	1.470754	0.178598	3191.898926
6245.786935	1.431262	0.178598	4706.174316
6245.787828	1.396208	0.178598	5952.988281
6245.788700	1.362623	0.178598	7141.195801
6245.789810	1.324823	0.178598	8611.749023
6245.790779	1.292212	0.178598	9863.902344
6245.791652	1.263834	0.178598	10967.229492
6245.792689	1.231143	0.178598	12243.924805
6245.793744	0.749033	0.178598	13034.155273
6245.794632	0.108241	0.178598	13130.273437
6245.795560	0.097500	0.178598	13220.753906
6245.796631	0.097639	0.178598	13325.325195
6245.797583	0.097518	0.178598	13418.163086
6245.798445	0.097610	0.178598	13502.302734
6245.799490	0.097731	0.178598	13604.431641
6245.800501	0.097621	0.178598	13703.125977
6245.801392	0.097698	0.178598	13790.174805
6245.802264	0.097573	0.178598	13875.258789
6245.803247	0.097628	0.178598	13971.227539
6246.798269	0.997665	0.186534	426.002869
6246.799312	1.479276	0.186534	1968.887695
6246.800344	1.464214	0.186534	3479.956543
6246.801243	1.429336	0.186534	4764.929687
6246.802195	1.393242	0.186534	6091.296387
6246.803253	1.354076	0.186534	7523.908691
6246.804193	1.321285	0.186534	8765.916992
6246.805065	1.290963	0.186534	9891.636719
6246.806126	1.257437	0.186534	11225.777344
6246.807138	1.225884	0.186534	12466.372070
6246.808023	0.739362	0.186534	13120.707031
6246.809001	0.108834	0.186534	13227.146484
6246.810050	0.097614	0.186534	13329.542969
6246.810958	0.097551	0.186534	13418.119141
6246.811813	0.097537	0.186534	13501.512695
6246.812875	0.097581	0.186534	13605.143555
6246.813879	0.097636	0.186534	13703.169922
6246.814748	0.097665	0.186534	13788.041016
6246.815736	0.097614	0.186534	13884.483398
6246.816802	0.097628	0.186534	13988.554687
6246.817706	0.097460	0.186534	14076.658203
6247.854523	0.993505	0.177740	422.239471
6247.855390	1.472054	0.177740	1698.510620
6247.856465	1.468825	0.177740	3277.497070
6247.857414	1.432793	0.177740	4637.217773
6247.858297	1.398464	0.177740	5872.061523
6247.859259	1.363586	0.177740	7183.831543
6247.860295	1.326892	0.177740	8558.492187
6247.861187	1.296262	0.177740	9714.757812
6247.862053	1.267192	0.177740	10812.146484
6247.863137	1.233900	0.177740	12149.694336
6247.864073	0.962483	0.177740	13050.578125
6247.864950	0.142972	0.177740	13175.964844
6247.865902	0.097588	0.177740	13268.868164
6247.866953	0.097665	0.177740	13371.513672
6247.867823	0.097529	0.177740	13456.364258
6247.868773	0.097698	0.177740	13549.176758
6247.869824	0.097690	0.177740	13651.849609
6247.870758	0.097661	0.177740	13743.065430
6247.871620	0.097731	0.177740	13827.309570
6247.872680	0.097745	0.177740	13930.919922
6247.873688	0.097621	0.177740	14029.321289
6248.866340	1.057299	0.190010	561.425598
6248.867288	1.482063	0.190010	1966.421143
6248.868173	1.469059	0.190010	3266.538086
6248.869140	1.432211	0.190010	4651.485840
6248.870183	1.391803	0.190010	6103.136230
6248.871074	1.358650	0.190010	7313.693359
6248.871941	1.327830	0.190010	8464.921875
6248.873014	1.292271	0.190010	9851.528320
6248.873954	1.261498	0.190010	11037.335937
6248.874830	1.234164	0.190010	12118.462891
6248.875784	0.918893	0.190010	12995.086914
6248.876825	0.119037	0.190010	13119.003906
6248.877708	0.097533	0.190010	13205.125977
6248.878563	0.097581	0.190010	13288.557617
6248.879595	0.097672	0.190010	13389.355469
6248.880558	0.097581	0.190010	13483.325195
6248.881422	0.097562	0.190010	13567.619141
6248.882441	0.097756	0.190010	13667.232422
6248.883481	0.097672	0.190010	13768.811523
6248.884370	0.097621	0.190010	13855.596680
6248.885322	0.097808	0.190010	13948.709961
6249.924051	1.021831	0.178316	452.671143
6249.924920	1.473574	0.178316	1733.207031
6249.926030	1.466605	0.178316	3361.138672
6249.927009	1.429296	0.178316	4760.418945
6249.927878	1.395758	0.178316	5973.332520
6249.928906	1.358163	0.178316	7369.523926
6249.929958	1.321926	0.178316	8760.190430
6249.930847	1.290806	0.178316	9907.716797
6249.931747	1.260784	0.178316	11042.421875
6249.932849	1.227404	0.178316	12395.020508
6249.933805	0.721282	0.178316	13084.565430
6249.934662	0.108571	0.178316	13177.610352
6249.935698	0.097603	0.178316	13278.726562
6249.936726	0.097592	0.178316	13379.050781
6249.937614	0.097636	0.178316	13465.750977
6249.938563	0.097786	0.178316	13558.549805
6249.939616	0.097610	0.178316	13661.333008
6249.940551	0.097511	0.178316	13752.505859
6249.941421	0.097639	0.178316	13837.452148
6249.942487	0.097676	0.178316	13941.574219
6249.943492	0.097643	0.178316	14039.705078
6250.935832	1.075056	0.190618	543.978455
6250.936823	1.482583	0.190618	2013.218018
6250.937712	1.467784	0.190618	3318.078369
6250.938734	1.428995	0.190618	4778.511719
6250.939789	1.389236	0.190618	6244.155273
6250.940685	1.355669	0.190618	7458.834473
6250.941556	1.323607	0.190618	8611.696289
6250.942671	1.287440	0.190618	10047.192383
6250.943631	1.256356	0.190618	11253.294922
6250.944496	1.229407	0.190618	12316.731445
6250.945544	0.694526	0.190618	13044.594727
6250.946583	0.101473	0.190618	13150.025391
6250.947458	0.097463	0.190618	13235.305664
6250.948392	0.097665	0.190618	13326.524414
6250.949460	0.097632	0.190618	13430.794922
6250.950398	0.097515	0.190618	13522.263672
6250.951263	0.097687	0.190618	13606.762695
6250.952289	0.097745	0.190618	13707.049805
6250.953309	0.097646	0.190618	13806.649414
6250.954198	0.097701	0.190618	13893.505859
6250.955139	0.097646	0.190618	13985.391602
6251.995685	1.082029	0.177188	557.244812
6251.996695	1.482799	0.177188	2054.871826
6251.997570	1.467323	0.177188	3338.779297
6251.998572	1.428988	0.177188	4770.625000
6251.999638	1.388251	0.177188	6250.500000
6252.000528	1.354904	0.177188	7456.364258
6252.001398	1.323296	0.177188	8607.631836
6252.002510	1.287122	0.177188	10038.911133
6252.003491	1.255763	0.177188	11270.814453
6252.004366	1.228458	0.177188	12345.715820
6252.005387	0.681903	0.177188	13041.938477
6252.006433	0.100939	0.177188	13147.520508
6252.007316	0.097474	0.177188	13233.590820
6252.008225	0.097515	0.177188	13322.231445
6252.009290	0.097745	0.177188	13426.330078
6252.010251	0.097478	0.177188	13520.006836
6252.011170	0.097570	0.177188	13609.672852
6252.012033	0.097526	0.177188	13693.837891
6252.013065	0.097694	0.177188	13794.658203
6252.013949	0.097603	0.177188	13880.938477
6252.014819	0.097588	0.177188	13965.839844
6253.003716	1.005989	0.192137	437.605103
6253.004584	1.472688	0.192137	1715.898193
6253.005689	1.467048	0.192137	3336.986816
6253.006675	1.429274	0.192137	4746.250488
6253.007564	1.395333	0.192137	5986.701660
6253.008586	1.358328	0.192137	7374.912598
6253.009639	1.321567	0.192137	8766.523437
6253.010522	1.290535	0.192137	9906.065430
6253.011409	1.261135	0.192137	11024.692383
6253.012496	1.228184	0.192137	12359.728516
6253.013452	0.752900	0.192137	13079.500977
6253.014310	0.111116	0.192137	13174.837891
6253.015349	0.097709	0.192137	13276.357422
6253.016396	0.097654	0.192137	13378.600586
6253.017265	0.097694	0.192137	13463.497070
6253.018193	0.097709	0.192137	13554.170898
6253.019264	0.097687	0.192137	13658.792969
6253.020191	0.097584	0.192137	13749.253906
6253.021101	0.097606	0.192137	13838.075195
6253.021975	0.097731	0.192137	13923.492187
6253.023011	0.097683	0.192137	14024.691406
6254.064056	0.993113	0.176797	420.086700
6254.065037	1.474655	0.176797	1866.722778
6254.066101	1.465356	0.176797	3425.862061
6254.067013	1.429768	0.176797	4729.810547
6254.067879	1.395150	0.176797	5938.010742
6254.068997	1.355427	0.176797	7453.378418
6254.069973	1.321571	0.176797	8743.231445
6254.070844	1.291926	0.176797	9868.499023
6254.071909	1.257675	0.176797	11207.922852
6254.072940	1.225525	0.176797	12471.439453
6254.073829	0.720110	0.176797	13111.617187
6254.074765	0.108567	0.176797	13213.235352
6254.075826	0.097672	0.176797	13316.865234
6254.076759	0.097636	0.176797	13407.958984
6254.077618	0.097632	0.176797	13491.825195
6254.078683	0.097727	0.176797	13595.904297
6254.079698	0.097588	0.176797	13694.956055
6254.080576	0.097698	0.176797	13780.734375
6254.081536	0.097764	0.176797	13874.587891
6254.082591	0.097588	0.176797	13977.542969
6254.083511	0.097588	0.176797	14067.324219
6255.072773	1.052750	0.191299	524.269592
6255.073659	1.477925	0.191299	1833.710937
6255.074522	1.472490	0.191299	3104.470215
6255.075566	1.433441	0.191299	4600.982910
6255.076536	1.396274	0.191299	5955.369141
6255.077407	1.364231	0.191299	7143.614258
6255.078463	1.326918	0.191299	8544.839844
6255.079497	1.291988	0.191299	9880.755859
6255.080384	1.262699	0.191299	11000.769531
6255.081332	1.232853	0.191299	12169.513672
6255.082412	0.777411	0.191299	13009.117187
6255.083345	0.108955	0.191299	13110.772461
6255.084204	0.097485	0.191299	13194.512695
6255.085245	0.097687	0.191299	13296.205078
6255.086267	0.097720	0.191299	13396.074219
6255.087155	0.097595	0.191299	13482.738281
6255.088113	0.097727	0.191299	13576.360352
6255.089173	0.097592	0.191299	13679.807617
6255.090100	0.097617	0.191299	13770.298828
6255.090964	0.097672	0.191299	13854.687500
6255.092054	0.097767	0.191299	13961.253906
6256.134071	0.992124	0.180580	415.699951
6256.135090	1.478254	0.180580	1922.041138
6256.136124	1.464822	0.180580	3436.666748
6256.137018	1.430534	0.180580	4715.563477
6256.137982	1.393641	0.180580	6059.033691
6256.139060	1.354083	0.180580	7518.735352
6256.139988	1.321494	0.180580	8745.082031
6256.140855	1.291172	0.180580	9864.528320
6256.141960	1.256210	0.180580	11252.639648
6256.142957	1.225096	0.180580	12474.060547
6256.143851	0.716250	0.180580	13114.387695
6256.144843	0.106578	0.180580	13220.113281
6256.145898	0.097628	0.180580	13323.111328
6256.146808	0.097646	0.180580	13411.969727
6256.147666	0.097804	0.180580	13495.885742
6256.148773	0.097705	0.180580	13604.044922
6256.149740	0.097665	0.180580	13698.486328
6256.150596	0.097621	0.180580	13782.049805
6256.151678	0.097877	0.180580	13887.953125
6256.152716	0.097698	0.180580	13989.363281
6256.153597	0.097672	0.180580	14075.412109
6257.141294	1.071035	0.192423	577.287964
6257.142350	1.482693	0.192423	2143.011719
6257.143272	1.463635	0.192423	3492.483398
6257.144138	1.428831	0.192423	4729.850586
6257.145230	1.388405	0.192423	6245.988281
6257.146218	1.352351	0.192423	7582.111328
6257.147095	1.321113	0.192423	8740.727539
6257.148096	1.287382	0.192423	10029.396484
6257.149177	1.253690	0.192423	11384.635742
6257.150059	1.225312	0.192423	12465.361328
6257.150935	0.696940	0.192423	13075.880859
6257.152042	0.100778	0.192423	13187.441406
6257.153010	0.097636	0.192423	13281.952148
6257.153873	0.097646	0.192423	13366.220703
6257.154903	0.097756	0.192423	13466.910156
6257.155947	0.097636	0.192423	13568.841797
6257.156838	0.097544	0.192423	13655.753906
6257.157762	0.097734	0.192423	13746.060547
6257.158832	0.097712	0.192423	13850.613281
6257.159779	0.097687	0.192423	13943.123047
6257.160642	0.097584	0.192423	14027.337891
6258.205732	1.086588	0.172628	574.805115
6258.206638	1.480704	0.172628	1916.323242
6258.207565	1.468627	0.172628	3277.740234
6258.208436	1.433965	0.172628	4526.723633
6258.209477	1.395319	0.172628	5979.250488
6258.210371	1.362470	0.172628	7197.298340
6258.211246	1.330939	0.172628	8361.870117
6258.212265	1.297775	0.172628	9684.302734
6258.213165	1.266661	0.172628	10824.297852
6258.214089	1.237998	0.172628	11968.208008
6258.214972	1.067897	0.172628	12911.161133
6258.216025	0.152651	0.172628	13071.903320
6258.216915	0.097467	0.172628	13158.649414
6258.217772	0.097749	0.172628	13242.419922
6258.218859	0.097720	0.172628	13348.641602
6258.219793	0.097610	0.172628	13439.809570
6258.220664	0.097727	0.172628	13524.929687
6258.221633	0.097683	0.172628	13619.584961
6258.222645	0.097661	0.172628	13718.417969
6258.223524	0.097690	0.172628	13804.288086
6258.224381	0.097581	0.172628	13887.915039
6259.209672	1.010131	0.191936	440.416962
6259.210541	1.472864	0.191936	1720.335571
6259.211628	1.467499	0.191936	3315.506836
6259.212637	1.428812	0.191936	4757.178223
6259.213527	1.395055	0.191936	5998.777344
6259.214505	1.359009	0.191936	7327.887695
6259.215571	1.321531	0.191936	8736.639648
6259.216481	1.290509	0.191936	9911.002930
6259.217352	1.260886	0.191936	11009.234375
6259.218476	1.227418	0.191936	12388.852539
6259.219454	0.700554	0.191936	13073.994141
6259.220317	0.106926	0.191936	13166.271484
6259.221413	0.097606	0.191936	13273.248047
6259.222429	0.097573	0.191936	13372.382812
6259.223312	0.097526	0.191936	13458.498047
6259.224183	0.097522	0.191936	13543.439453
6259.225118	0.097665	0.191936	13634.755859
6259.226110	0.097518	0.191936	13731.494141
6259.227013	0.097493	0.191936	13819.530273
6259.227888	0.097621	0.191936	13904.948242
6259.228936	0.097643	0.191936	14007.278320
6260.274714	1.058053	0.176837	551.245605
6260.275750	1.483198	0.176837	2087.838867
6260.276644	1.465470	0.176837	3397.968994
6260.277510	1.431574	0.176837	4637.711914
6260.278594	1.390865	0.176837	6145.410156
6260.279531	1.356727	0.176837	7416.663574
6260.280398	1.324955	0.176837	8565.399414
6260.281485	1.289040	0.176837	9966.585937
6260.282489	1.256733	0.176837	11228.346680
6260.283382	1.228828	0.176837	12325.690430
6260.284386	0.719015	0.176837	13047.581055
6260.285426	0.102583	0.176837	13154.267578
6260.286322	0.097577	0.176837	13241.696289
6260.287183	0.097610	0.176837	13325.738281
6260.288258	0.097760	0.176837	13430.830078
6260.289245	0.097529	0.176837	13527.091797
6260.290118	0.097614	0.176837	13612.308594
6260.291132	0.097687	0.176837	13711.363281
6260.292191	0.097551	0.176837	13814.669922
6260.293065	0.097581	0.176837	13899.955078
6260.293932	0.097661	0.176837	13984.626953
6261.279168	1.006542	0.194300	432.812988
6261.280048	1.473124	0.194300	1729.161865
6261.280908	1.473413	0.194300	2996.297119
6261.282028	1.434100	0.194300	4602.489258
6261.282924	1.398589	0.194300	5855.625000
6261.283795	1.366040	0.194300	7045.445801
6261.284818	1.330708	0.194300	8406.759766
6261.285814	1.296072	0.194300	9697.647461
6261.286699	1.267112	0.194300	10819.041016
6261.287570	1.238467	0.194300	11897.746094
6261.288670	0.973466	0.194300	12968.558594
6261.289582	0.144001	0.194300	13099.887695
6261.290442	0.097496	0.194300	13183.734375
6261.291537	0.097760	0.194300	13290.781250
6261.292519	0.097592	0.194300	13386.616211
6261.293413	0.097581	0.194300	13473.853516
6261.294402	0.097826	0.194300	13570.603516
6261.295456	0.097599	0.194300	13673.472656
6261.296340	0.097555	0.194300	13759.710937
6261.297207	0.097592	0.194300	13844.323242
6261.298306	0.097734	0.194300	13951.733398
6262.344721	1.074218	0.174638	537.108765
6262.345721	1.482404	0.174638	2019.512451
6262.346622	1.466920	0.174638	3341.207520
6262.347629	1.428574	0.174638	4779.781738
6262.348700	1.387976	0.174638	6266.304199
6262.349599	1.354574	0.174638	7484.066406
6262.350494	1.322322	0.174638	8667.544922
6262.351601	1.285745	0.174638	10090.864258
6262.352559	1.255096	0.174638	11293.246094
6262.353430	1.227598	0.174638	12362.483398
6262.354497	0.620662	0.174638	13024.729492
6262.355519	0.099727	0.174638	13126.650391
6262.356410	0.097584	0.174638	13213.597656
6262.357353	0.097694	0.174638	13305.723633
6262.358394	0.097749	0.174638	13407.480469
6262.359319	0.097559	0.174638	13497.722656
6262.360176	0.097654	0.174638	13581.412109
6262.361238	0.097789	0.174638	13685.264648
6262.362246	0.097606	0.174638	13783.651367
6262.363123	0.097643	0.174638	13869.284180
6262.364093	0.097679	0.174638	13964.033203
6263.347742	1.077905	0.195295	551.887512
6263.348759	1.482517	0.195295	2059.607422
6263.349645	1.466766	0.195295	3359.162354
6263.350620	1.429947	0.195295	4753.361328
6263.351688	1.388591	0.195295	6236.376953
6263.352608	1.354717	0.195295	7482.716309
6263.353476	1.323413	0.195295	8631.439453
6263.354552	1.287546	0.195295	10016.839844
6263.355549	1.255254	0.195295	11268.328125
6263.356450	1.227675	0.195295	12374.462891
6263.357444	0.683661	0.195295	13054.021484
6263.358501	0.101184	0.195295	13160.972656
6263.359402	0.097625	0.195295	13248.932617
6263.360264	0.097646	0.195295	13333.103516
6263.361373	0.097789	0.195295	13441.551758
6263.362342	0.097650	0.195295	13536.174805
6263.363206	0.097584	0.195295	13620.487305
6263.364288	0.097811	0.195295	13726.319336
6263.365325	0.097687	0.195295	13827.620117
6263.366212	0.097650	0.195295	13914.235352
6263.367113	0.097639	0.195295	14002.208008
6264.413120	0.998862	0.175895	426.514221
6264.414170	1.478419	0.175895	1978.854248
6264.415212	1.463375	0.175895	3503.691162
6264.416119	1.428325	0.175895	4799.182129
6264.417005	1.394121	0.175895	6034.373535
6264.417945	1.359214	0.175895	7312.034668
6264.418945	1.324958	0.175895	8636.993164
6264.419866	1.293424	0.175895	9828.236328
6264.420729	1.264823	0.175895	10919.778320
6264.421760	1.232849	0.175895	12190.845703
6264.422666	0.919325	0.175895	13023.753906
6264.423600	0.129042	0.175895	13144.279297
6264.424467	0.097518	0.175895	13228.828125
6264.425492	0.097628	0.175895	13328.897461
6264.426389	0.097581	0.175895	13416.426758
6264.427265	0.097467	0.175895	13501.807617
6264.428274	0.097694	0.175895	13600.380859
6264.429194	0.097595	0.175895	13690.167969
6264.430069	0.097603	0.175895	13775.570312
6264.431064	0.097705	0.175895	13872.787109
6264.432070	0.097650	0.175895	13971.023437
6265.418718	1.039446	0.192842	469.829529
6265.419592	1.474892	0.192842	1758.885498
6265.420612	1.469407	0.192842	3257.680176
6265.421658	1.429764	0.192842	4753.213867
6265.422565	1.394575	0.192842	6018.093750
6265.423431	1.360503	0.192842	7196.289062
6265.424532	1.323435	0.192842	8653.390625
6265.425499	1.291256	0.192842	9902.035156
6265.426361	1.262410	0.192842	10990.232422
6265.427415	1.229418	0.192842	12286.039062
6265.428497	0.686891	0.192842	13029.254883
6265.429375	0.105135	0.192842	13121.563477
6265.430283	0.097555	0.192842	13210.143555
6265.431159	0.097650	0.192842	13295.685547
6265.432120	0.097617	0.192842	13389.496094
6265.433061	0.097617	0.192842	13481.353516
6265.433950	0.097559	0.192842	13568.083008
6265.434958	0.097690	0.192842	13666.554687
6265.435867	0.097643	0.192842	13755.311523
6265.436788	0.097661	0.192842	13845.257812
6265.437647	0.097778	0.192842	13929.249023
6266.482626	0.999595	0.177035	427.826538
6266.483614	1.472670	0.177035	1882.824097
6266.484666	1.465096	0.177035	3424.105469
6266.485593	1.429340	0.177035	4749.103516
6266.486459	1.395271	0.177035	5957.408203
6266.487510	1.356940	0.177035	7383.551758
6266.488513	1.321736	0.177035	8709.252930
6266.489408	1.291106	0.177035	9864.792969
6266.490392	1.259905	0.177035	11104.539062
6266.491459	1.226711	0.177035	12413.440430
6266.492379	0.735967	0.177035	13090.530273
6266.493239	0.109739	0.177035	13184.905273
6266.494336	0.097716	0.177035	13292.099609
6266.495307	0.097643	0.177035	13386.911133
6266.496186	0.097694	0.177035	13472.784180
6266.497174	0.097720	0.177035	13569.331055
6266.498226	0.097679	0.177035	13672.089844
6266.499127	0.097606	0.177035	13760.033203
6266.499988	0.097709	0.177035	13844.160156
6266.501084	0.097734	0.177035	13951.277344
6266.502044	0.097592	0.177035	14044.964844
6267.488259	1.061990	0.194389	526.746887
6267.489139	1.477581	0.194389	1827.017822
6267.490006	1.472289	0.194389	3103.492187
6267.491054	1.432965	0.194389	4605.239746
6267.492014	1.396241	0.194389	5945.631348
6267.492895	1.363455	0.194389	7146.834961
6267.493824	1.330214	0.194389	8382.603516
6267.494904	1.293951	0.194389	9780.071289
6267.495799	1.264372	0.194389	10911.684570
6267.496731	1.235493	0.194389	12063.164062
6267.497798	0.879595	0.194389	13001.691406
6267.498734	0.119216	0.194389	13113.278320
6267.499596	0.097544	0.194389	13197.361328
6267.500643	0.097701	0.194389	13299.654297
6267.501670	0.097570	0.194389	13399.858398
6267.502553	0.097504	0.194389	13485.954102
6267.503526	0.097573	0.194389	13580.892578
6267.504572	0.097588	0.194389	13682.969727
6267.505489	0.097515	0.194389	13772.390625
6267.506346	0.097614	0.194389	13856.044922
6267.507370	0.097668	0.194389	13956.057617
6268.551200	1.089001	0.176217	569.547729
6268.552117	1.480613	0.176217	1927.269653
6268.552989	1.469172	0.176217	3208.387939
6268.554093	1.428307	0.176217	4785.238770
6268.555087	1.389862	0.176217	6166.761719
6268.555985	1.357496	0.176217	7385.793457
6268.556983	1.322406	0.176217	8705.554687
6268.558046	1.287144	0.176217	10073.788086
6268.558948	1.257162	0.176217	11207.748047
6268.559830	1.229081	0.176217	12291.796875
6268.560931	0.652826	0.176217	13010.558594
6268.561877	0.101891	0.176217	13106.947266
6268.562738	0.097599	0.176217	13190.979492
6268.563778	0.097797	0.176217	13292.687500
6268.564803	0.097551	0.176217	13392.677734
6268.565677	0.097570	0.176217	13477.953125
6268.566591	0.097709	0.176217	13567.258789
6268.567670	0.097676	0.176217	13672.651367
6268.568610	0.097518	0.176217	13764.318359
6268.569469	0.097625	0.176217	13848.177734
6268.570497	0.097782	0.176217	13948.697266
6269.557775	1.062576	0.194248	538.725891
6269.558688	1.480063	0.194248	1890.023926
6269.559552	1.470337	0.194248	3160.395020
6269.560647	1.429849	0.194248	4726.079102
6269.561639	1.391451	0.194248	6106.398926
6269.562540	1.358752	0.194248	7330.634766
6269.563558	1.323109	0.194248	8677.559570
6269.564615	1.287759	0.194248	10038.720703
6269.565500	1.258294	0.194248	11152.310547
6269.566370	1.230161	0.194248	12222.550781
6269.567483	0.694614	0.194248	12995.656250
6269.568431	0.103403	0.194248	13093.682617
6269.569290	0.097522	0.194248	13177.454102
6269.570321	0.097679	0.194248	13278.161133
6269.571357	0.097668	0.194248	13379.345703
6269.572223	0.097507	0.194248	13463.787109
6269.573120	0.097636	0.194248	13551.366211
6269.574225	0.097657	0.194248	13659.277344
6269.575178	0.097705	0.194248	13752.390625
6269.576046	0.097599	0.194248	13837.106445
6269.577087	0.097756	0.194248	13938.871094
6270.620706	1.084178	0.178602	556.183533
6270.621667	1.481935	0.178602	1980.322754
6270.622534	1.469048	0.178602	3253.987305
6270.623597	1.428856	0.178602	4772.861328
6270.624634	1.389426	0.178602	6213.696289
6270.625520	1.356497	0.178602	7415.552246
6270.626474	1.322809	0.178602	8677.511719
6270.627531	1.287480	0.178602	10038.378906
6270.628466	1.257180	0.178602	11213.842773
6270.629329	1.229861	0.178602	12275.212891
6270.630401	0.703879	0.178602	13029.771484
6270.631412	0.101796	0.178602	13132.686523
6270.632284	0.097537	0.178602	13217.738281
6270.633159	0.097566	0.178602	13303.108398
6270.634133	0.097643	0.178602	13398.212891
6270.635076	0.097628	0.178602	13490.276367
6270.635989	0.097665	0.178602	13579.444336
6270.636865	0.097654	0.178602	13664.989258
6270.637904	0.097621	0.178602	13766.416992
6270.638800	0.097625	0.178602	13853.888672
6270.639675	0.097584	0.178602	13939.274414
6271.627780	1.051436	0.194562	521.512024
6271.628657	1.477423	0.194562	1817.212158
6271.629553	1.470615	0.194562	3134.883301
6271.630658	1.429922	0.194562	4714.947266
6271.631614	1.393162	0.194562	6046.809570
6271.632493	1.360236	0.194562	7242.456543
6271.633564	1.323157	0.194562	8659.557617
6271.634586	1.288612	0.194562	9976.519531
6271.635485	1.259363	0.194562	11108.686523
6271.636451	1.229652	0.194562	12296.530273
6271.637501	0.693025	0.194562	13024.206055
6271.638425	0.104282	0.194562	13120.562500
6271.639287	0.097742	0.194562	13204.815430
6271.640355	0.097775	0.194562	13309.238281
6271.641355	0.097584	0.194562	13406.822266
6271.642227	0.097617	0.194562	13491.944336
6271.643223	0.097778	0.194562	13589.332031
6271.644271	0.097679	0.194562	13691.700195
6271.645172	0.097588	0.194562	13779.626953
6271.646029	0.097731	0.194562	13863.381836
6271.647096	0.097716	0.194562	13967.644531
6272.689088	0.998492	0.177651	426.356293
6272.690020	1.471999	0.177651	1798.259766
6272.691068	1.467052	0.177651	3335.730469
6272.691962	1.432390	0.177651	4616.287109
6272.692837	1.398633	0.177651	5840.090820
6272.693867	1.360649	0.177651	7241.559570
6272.694828	1.326855	0.177651	8516.667969
6272.695705	1.296863	0.177651	9654.016602
6272.696636	1.266559	0.177651	10833.182617
6272.697724	1.233010	0.177651	12174.697266
6272.698620	0.978281	0.177651	13051.237305
6272.699486	0.148400	0.177651	13179.750977
6272.700530	0.097701	0.177651	13281.750977
6272.701479	0.097617	0.177651	13374.389648
6272.702354	0.097646	0.177651	13459.830078
6272.703249	0.097606	0.177651	13547.187500
6272.704357	0.097617	0.177651	13655.347656
6272.705236	0.097614	0.177651	13741.150391
6272.706122	0.097595	0.177651	13827.620117
6272.707210	0.097727	0.177651	13933.947266
6272.708161	0.097577	0.177651	14026.743164
6273.698249	1.012870	0.191758	443.636993
6273.699176	1.475819	0.191758	1811.721313
6273.700046	1.472124	0.191758	3092.469238
6273.701098	1.433551	0.191758	4600.564941
6273.701988	1.398948	0.191758	5845.628418
6273.702860	1.366534	0.191758	7037.246582
6273.703837	1.332067	0.191758	8338.675781
6273.704792	1.298833	0.191758	9579.061523
6273.705706	1.269159	0.191758	10739.072266
6273.706589	1.241067	0.191758	11834.934570
6273.707635	1.096582	0.191758	12981.958984
6273.708531	0.189847	0.191758	13152.062500
6273.709402	0.097500	0.191758	13236.985352
6273.710340	0.097727	0.191758	13328.653320
6273.711337	0.097496	0.191758	13425.857422
6273.712253	0.097595	0.191758	13515.254883
6273.713114	0.097617	0.191758	13599.303711
6273.714186	0.097661	0.191758	13703.996094
6273.715057	0.097540	0.191758	13788.954102
6273.715934	0.097559	0.191758	13874.512695
6273.717014	0.097734	0.191758	13980.065430
6274.757605	1.037545	0.180894	484.533600
6274.758479	1.475035	0.180894	1773.714478
6274.759440	1.470930	0.180894	3187.278320
6274.760498	1.430717	0.180894	4700.976562
6274.761425	1.394509	0.180894	5993.686523
6274.762292	1.362198	0.180894	7174.712891
6274.763370	1.325131	0.180894	8603.203125
6274.764381	1.290425	0.180894	9907.822266
6274.765264	1.261077	0.180894	11021.352539
6274.766247	1.231201	0.180894	12231.623047
6274.767308	0.758295	0.180894	13036.173828
6274.768209	0.109003	0.180894	13134.384766
6274.769065	0.097496	0.180894	13217.841797
6274.770141	0.097705	0.180894	13322.972656
6274.771132	0.097456	0.180894	13419.551758
6274.772018	0.097474	0.180894	13505.914062
6274.773015	0.097727	0.180894	13603.347656
6274.774073	0.097540	0.180894	13706.544922
6274.774974	0.097577	0.180894	13794.461914
6274.775837	0.097548	0.180894	13878.645508
6274.776943	0.097551	0.180894	13986.537109
6275.768249	0.992336	0.193003	421.742981
6275.769154	1.471110	0.193003	1753.097168
6275.770244	1.466005	0.193003	3351.042236
6275.771197	1.429453	0.193003	4713.311035
6275.772067	1.395461	0.193003	5927.362305
6275.773121	1.357262	0.193003	7357.916504
6275.774151	1.321359	0.193003	8718.916016
6275.775035	1.291121	0.193003	9860.266602
6275.776008	1.260289	0.193003	11086.528320
6275.777061	1.226986	0.193003	12378.544922
6275.777988	0.760188	0.193003	13083.239258
6275.778844	0.111599	0.193003	13178.768555
6275.779914	0.097526	0.193003	13283.121094
6275.780926	0.097540	0.193003	13381.832031
6275.781793	0.097522	0.193003	13466.383789
6275.782768	0.097723	0.193003	13561.664062
6275.783823	0.097617	0.193003	13664.650391
6275.784735	0.097463	0.193003	13753.537109
6275.785598	0.097570	0.193003	13837.739258
6275.786677	0.097679	0.193003	13943.135742
6275.787671	0.097405	0.193003	14039.956055
6276.826629	1.059727	0.178296	528.803589
6276.827623	1.482078	0.178296	2001.988770
6276.828517	1.467594	0.178296	3314.017822
6276.829519	1.429746	0.178296	4746.623047
6276.830574	1.389855	0.178296	6212.919922
6276.831468	1.356522	0.178296	7425.650879
6276.832346	1.325497	0.178296	8589.437500
6276.833243	1.294043	0.178296	9750.194336
6276.834282	1.260791	0.178296	11060.156250
6276.835177	1.233032	0.178296	12163.719727
6276.836050	1.020897	0.178296	13054.962891
6276.837081	0.141453	0.178296	13200.800781
6276.837990	0.097584	0.178296	13289.504883
6276.838895	0.097573	0.178296	13377.808594
6276.839773	0.097661	0.178296	13463.554687
6276.840809	0.097533	0.178296	13564.598633
6276.841700	0.097588	0.178296	13651.549805
6276.842575	0.097628	0.178296	13736.974609
6276.843537	0.097603	0.178296	13830.868164
6276.844496	0.097577	0.178296	13924.444336
6276.845377	0.097592	0.178296	14010.422852
6277.838264	0.989074	0.191331	417.389038
6277.839250	1.473106	0.191331	1869.871094
6277.840311	1.464921	0.191331	3424.151855
6277.841232	1.429102	0.191331	4740.354492
6277.842158	1.394033	0.191331	6031.229492
6277.843028	1.360316	0.191331	7214.704590
6277.844074	1.325083	0.191331	8600.741211
6277.844956	1.294929	0.191331	9742.869141
6277.845827	1.266702	0.191331	10846.166016
6277.846832	1.235596	0.191331	12087.939453
6277.847756	1.012299	0.191331	13023.303711
6277.848669	0.151058	0.191331	13161.219727
6277.849544	0.097430	0.191331	13246.471680
6277.850573	0.097701	0.191331	13347.006836
6277.851470	0.097540	0.191331	13434.500000
6277.852347	0.097599	0.191331	13520.093750
6277.853290	0.097676	0.191331	13612.202148
6277.854268	0.097610	0.191331	13707.665039
6277.855141	0.097588	0.191331	13792.859375
6277.856002	0.097581	0.191331	13876.875977
6277.857126	0.097668	0.191331	13986.655273
6278.894044	1.037428	0.179690	467.879974
6278.894921	1.474592	0.179690	1761.097412
6278.895941	1.469198	0.179690	3259.679199
6278.896994	1.429548	0.179690	4764.993652
6278.897885	1.394220	0.179690	6007.243652
6278.898754	1.360408	0.179690	7189.437988
6278.899876	1.323124	0.179690	8673.982422
6278.900837	1.290685	0.179690	9914.330078
6278.901699	1.262271	0.179690	11002.407227
6278.902729	1.229850	0.179690	12269.152344
6278.903790	0.702784	0.179690	13014.806641
6278.904678	0.106263	0.179690	13109.168945
6278.905612	0.097628	0.179690	13200.353516
6278.906679	0.097760	0.179690	13304.663086
6278.907609	0.097621	0.179690	13395.450195
6278.908472	0.097661	0.179690	13479.731445
6278.909528	0.097705	0.179690	13582.908203
6278.910553	0.097606	0.179690	13682.954102
6278.911445	0.097592	0.179690	13770.005859
6278.912405	0.097804	0.179690	13863.897461
6278.913467	0.097731	0.179690	13967.687500
6279.909412	1.081124	0.187098	553.535583
6279.910438	1.482495	0.187098	2074.575439
6279.911330	1.465591	0.187098	3381.882324
6279.912293	1.429109	0.187098	4758.114258
6279.913359	1.388177	0.187098	6237.911133
6279.914292	1.353995	0.187098	7501.188477
6279.915159	1.322626	0.187098	8647.905273
6279.916261	1.286239	0.187098	10065.340820
6279.917253	1.254133	0.187098	11309.441406
6279.918155	1.226393	0.187098	12415.647461
6279.919171	0.630363	0.187098	13056.095703
6279.920217	0.099987	0.187098	13160.681641
6279.921115	0.097533	0.187098	13248.266602
6279.921972	0.097614	0.187098	13331.921875
6279.923081	0.097621	0.187098	13440.183594
6279.924036	0.097588	0.187098	13533.379883
6279.924895	0.097544	0.187098	13617.169922
6279.925959	0.097731	0.187098	13721.155273
6279.926998	0.097599	0.187098	13822.560547
6279.927878	0.097683	0.187098	13908.521484
6279.928799	0.097617	0.187098	13998.426758
6280.964542	0.997544	0.177240	423.956207
6280.965503	1.471498	0.177240	1838.065552
6280.966566	1.464415	0.177240	3394.738770
6280.967495	1.428574	0.177240	4721.884277
6280.968371	1.393920	0.177240	5942.958008
6280.969472	1.354453	0.177240	7434.210937
6280.970475	1.318975	0.177240	8757.142578
6280.971377	1.289070	0.177240	9919.883789
6280.972371	1.257125	0.177240	11169.466797
6280.973430	1.224265	0.177240	12465.963867
6280.974338	0.686580	0.177240	13089.377930
6280.975199	0.106351	0.177240	13180.946289
6280.976305	0.097709	0.177240	13289.011719
6280.977272	0.097434	0.177240	13383.230469
6280.978133	0.097577	0.177240	13467.244141
6280.979221	0.097636	0.177240	13573.471680
6280.980247	0.097537	0.177240	13673.543945
6280.981130	0.097441	0.177240	13759.584961
6280.982055	0.097529	0.177240	13849.799805
6280.983114	0.097595	0.177240	13953.153320
6280.984057	0.097562	0.177240	14045.154297
6281.977283	1.001675	0.187597	432.723511
6281.978149	1.471000	0.187597	1706.609253
6281.979187	1.468037	0.187597	3230.431641
6281.980211	1.429178	0.187597	4693.910156
6281.981105	1.394934	0.187597	5940.981445
6281.982070	1.360803	0.187597	7254.156738
6281.983136	1.322267	0.187597	8663.693359
6281.984062	1.290590	0.187597	9858.779297
6281.984929	1.261509	0.187597	10952.507812
6281.986027	1.227949	0.187597	12300.795898
6281.987036	0.728815	0.187597	13036.169922
6281.987922	0.107347	0.187597	13131.279297
6281.988910	0.097408	0.187597	13227.518555
6281.989949	0.097445	0.187597	13328.763672
6281.990844	0.097496	0.187597	13416.022461
6281.991703	0.097372	0.187597	13499.665039
6281.992790	0.097610	0.187597	13605.766602
6281.993774	0.097423	0.187597	13701.630859
6281.994651	0.097346	0.187597	13787.003906
6281.995655	0.097639	0.187597	13885.033203
6281.996705	0.097559	0.187597	13987.469727
6283.033609	1.070845	0.177224	522.572205
6283.034487	1.476526	0.177224	1818.961914
6283.035367	1.471194	0.177224	3113.612305
6283.036364	1.434221	0.177224	4543.530762
6283.037304	1.397596	0.177224	5857.271484
6283.038186	1.364736	0.177224	7060.968750
6283.039162	1.330789	0.177224	8359.818359
6283.040189	1.295361	0.177224	9690.154297
6283.041076	1.266108	0.177224	10813.192383
6283.041940	1.237954	0.177224	11882.785156
6283.043035	0.988429	0.177224	12965.115234
6283.043957	0.145829	0.177224	13099.569336
6283.044828	0.097368	0.177224	13184.376953
6283.045822	0.097614	0.177224	13281.405273
6283.046834	0.097441	0.177224	13380.015625
6283.047714	0.097397	0.177224	13465.725586
6283.048569	0.097408	0.177224	13549.009766
6283.049628	0.097515	0.177224	13652.277344
6283.050561	0.097438	0.177224	13743.186523
6283.051427	0.097452	0.177224	13827.580078
6283.052477	0.097621	0.177224	13930.082031
6284.046824	1.036337	0.186735	471.533173
6284.047707	1.473874	0.186735	1772.964355
6284.048583	1.472498	0.186735	3062.872070
6284.049609	1.435635	0.186735	4535.833008
6284.050534	1.399479	0.186735	5830.351074
6284.051412	1.365395	0.186735	7029.167969
6284.052414	1.330968	0.186735	8362.797852
6284.053433	1.295632	0.186735	9683.046875
6284.054315	1.266489	0.186735	10800.090820
6284.055186	1.238481	0.186735	11878.808594
6284.056267	0.992003	0.186735	12951.164062
6284.057199	0.147894	0.186735	13089.001953
6284.058074	0.097496	0.186735	13174.311523
6284.059061	0.097687	0.186735	13270.728516
6284.060076	0.097595	0.186735	13369.788086
6284.060960	0.097573	0.186735	13456.042969
6284.061819	0.097518	0.186735	13539.811523
6284.062890	0.097559	0.186735	13644.296875
6284.063809	0.097581	0.186735	13733.973633
6284.064669	0.097471	0.186735	13817.798828
6284.065743	0.097679	0.186735	13922.707031
6285.103112	1.053219	0.176229	525.556274
6285.103991	1.476694	0.176229	1823.570557
6285.104896	1.469425	0.176229	3153.400391
6285.105981	1.429277	0.176229	4704.166016
6285.106933	1.392561	0.176229	6029.883789
6285.107799	1.360547	0.176229	7208.117187
6285.108850	1.323853	0.176229	8599.486328
6285.109873	1.289191	0.176229	9918.328125
6285.110764	1.259835	0.176229	11040.841797
6285.111738	1.230315	0.176229	12239.168945
6285.112805	0.721824	0.176229	13009.354492
6285.113728	0.105590	0.176229	13106.813477
6285.114586	0.097471	0.176229	13190.443359
6285.115628	0.097592	0.176229	13292.133789
6285.116641	0.097500	0.176229	13390.901367
6285.117531	0.097478	0.176229	13477.657227
6285.118501	0.097478	0.176229	13572.210937
6285.119554	0.097430	0.176229	13674.804687
6285.120459	0.097533	0.176229	13763.072266
6285.121321	0.097548	0.176229	13847.158203
6285.122416	0.097661	0.176229	13954.096680
6286.115385	1.099834	0.183190	580.712341
6286.116442	1.482294	0.183190	2147.496826
6286.117316	1.464108	0.183190	3427.126953
6286.118285	1.427311	0.183190	4810.191406
6286.119351	1.385940	0.183190	6287.603516
6286.120287	1.351641	0.183190	7552.739258
6286.121158	1.320527	0.183190	8702.918945
6286.122227	1.285173	0.183190	10076.769531
6286.123248	1.252405	0.183190	11355.474609
6286.124141	1.224928	0.183190	12449.334961
6286.125122	0.635468	0.183190	13072.728516
6286.126168	0.100023	0.183190	13177.352539
6286.127078	0.097526	0.183190	13266.100586
6286.127941	0.097526	0.183190	13350.265625
6286.129043	0.097661	0.183190	13457.888672
6286.130028	0.097522	0.183190	13553.948242
6286.130921	0.097489	0.183190	13641.005859
6286.131922	0.097723	0.183190	13738.827148
6286.132969	0.097694	0.183190	13841.113281
6286.133843	0.097588	0.183190	13926.405273
6286.134706	0.097570	0.183190	14010.607422
6287.174086	1.011852	0.175331	441.167389
6287.174965	1.472772	0.175331	1735.734131
6287.175991	1.469085	0.175331	3243.014648
6287.176919	1.433130	0.175331	4572.958984
6287.177840	1.397919	0.175331	5860.442383
6287.178708	1.364520	0.175331	7044.845703
6287.179758	1.328892	0.175331	8440.181641
6287.180644	1.297958	0.175331	9590.171875
6287.181511	1.269261	0.175331	10690.621094
6287.182499	1.239375	0.175331	11915.123047
6287.183457	1.093616	0.175331	12962.806641
6287.184377	0.187925	0.175331	13135.697266
6287.185251	0.097324	0.175331	13220.758789
6287.186284	0.097540	0.175331	13321.517578
6287.187187	0.097456	0.175331	13409.520508
6287.188067	0.097496	0.175331	13495.317383
6287.188996	0.097438	0.175331	13585.836914
6287.190004	0.097540	0.175331	13684.157227
6287.190881	0.097496	0.175331	13769.661133
6287.191758	0.097463	0.175331	13855.136719
6287.192843	0.097548	0.175331	13960.975586
6288.183743	0.998511	0.185623	425.365601
6288.184676	1.471007	0.185623	1797.815186
6288.185745	1.465408	0.185623	3364.335937
6288.186684	1.429589	0.185623	4706.719727
6288.187549	1.396219	0.185623	5914.449707
6288.188627	1.356226	0.185623	7376.460937
6288.189647	1.320498	0.185623	8723.369141
6288.190535	1.290205	0.185623	9869.071289
6288.191525	1.259110	0.185623	11115.589844
6288.192584	1.226049	0.185623	12413.975586
6288.193504	0.720670	0.185623	13076.992187
6288.194412	0.106183	0.185623	13173.406250
6288.195286	0.097507	0.185623	13258.627930
6288.196310	0.097500	0.185623	13358.467773
6288.197203	0.097555	0.185623	13445.583984
6288.198076	0.097427	0.185623	13530.637695
6288.199051	0.097603	0.185623	13625.799805
6288.200019	0.097445	0.185623	13720.126953
6288.200943	0.097482	0.185623	13810.200195
6288.201810	0.097555	0.185623	13894.780273
6288.202849	0.097408	0.185623	13995.987305
6289.244717	1.063550	0.172805	571.126282
6289.245779	1.481224	0.172805	2144.186523
6289.246698	1.461789	0.172805	3487.571045
6289.247564	1.427369	0.172805	4723.672852
6289.248666	1.386742	0.172805	6251.862305
6289.249670	1.350344	0.172805	7607.607910
6289.250544	1.319989	0.172805	8761.278320
6289.251535	1.285573	0.172805	10035.280273
6289.252612	1.251676	0.172805	11383.334961
6289.253495	1.223562	0.172805	12463.740234
6289.254370	0.685276	0.172805	13063.356445
6289.255485	0.100302	0.172805	13175.192383
6289.256442	0.097394	0.172805	13268.398437
6289.257307	0.097577	0.172805	13352.802734
6289.258343	0.097599	0.172805	13453.915039
6289.259383	0.097555	0.172805	13555.372070
6289.260271	0.097522	0.172805	13641.971680
6289.261181	0.097537	0.172805	13730.730469
6289.262271	0.097548	0.172805	13837.057617
6289.263223	0.097496	0.172805	13929.874023
6289.264087	0.097588	0.172805	14014.190430
6290.251823	1.072397	0.184802	581.239441
6290.252839	1.482645	0.184802	2087.606934
6290.253732	1.464364	0.184802	3395.283936
6290.254598	1.430534	0.184802	4634.125977
6290.255707	1.389708	0.184802	6175.312500
6290.256619	1.355808	0.184802	7411.809570
6290.257497	1.323823	0.184802	8574.126953
6290.258513	1.290483	0.184802	9885.257812
6290.259518	1.257268	0.184802	11148.812500
6290.260412	1.229359	0.184802	12247.859375
6290.261276	0.896323	0.184802	13022.282227
6290.262373	0.112083	0.184802	13145.236328
6290.263272	0.097339	0.184802	13232.744141
6290.264147	0.097460	0.184802	13318.021484
6290.265127	0.097628	0.184802	13413.697266
6290.266132	0.097507	0.184802	13511.692383
6290.267020	0.097449	0.184802	13598.226562
6290.268001	0.097657	0.184802	13694.028320
6290.269039	0.097668	0.184802	13795.408203
6290.269956	0.097584	0.184802	13884.892578
6290.270817	0.097485	0.184802	13968.827148
6291.315748	1.078854	0.173002	562.082764
6291.316637	1.478430	0.173002	1876.407227
6291.317501	1.468498	0.173002	3145.189941
6291.318639	1.427446	0.173002	4769.624023
6291.319595	1.390598	0.173002	6099.036133
6291.320462	1.358822	0.173002	7277.134766
6291.321503	1.322131	0.173002	8653.473633
6291.322545	1.286997	0.173002	9994.524414
6291.323427	1.258096	0.173002	11104.165039
6291.324351	1.229041	0.173002	12239.798828
6291.325447	0.683170	0.173002	12988.553711
6291.326379	0.103147	0.173002	13084.686523
6291.327247	0.097646	0.173002	13169.443359
6291.328291	0.097811	0.173002	13271.558594
6291.329325	0.097478	0.173002	13372.350586
6291.330214	0.097511	0.173002	13459.038086
6291.331171	0.097537	0.173002	13552.380859
6291.332224	0.097625	0.173002	13655.179687
6291.333153	0.097533	0.173002	13745.788086
6291.334015	0.097566	0.173002	13829.889648
6291.335098	0.097617	0.173002	13935.609375
6292.319683	1.002623	0.187746	433.133270
6292.320554	1.471355	0.187746	1714.683472
6292.321636	1.466470	0.187746	3301.403809
6292.322633	1.428281	0.187746	4725.400391
6292.323528	1.394367	0.187746	5973.358398
6292.324508	1.359262	0.187746	7305.434570
6292.325550	1.321571	0.187746	8682.511719
6292.326457	1.290417	0.187746	9852.919922
6292.327322	1.261428	0.187746	10944.055664
6292.328430	1.228169	0.187746	12304.867187
6292.329433	0.726134	0.187746	13033.179687
6292.330310	0.108563	0.187746	13128.389648
6292.331318	0.097687	0.187746	13226.857422
6292.332365	0.097610	0.187746	13329.054687
6292.333240	0.097573	0.187746	13414.431641
6292.334122	0.097672	0.187746	13500.578125
6292.335227	0.097672	0.187746	13608.505859
6292.336170	0.097617	0.187746	13700.558594
6292.337038	0.097500	0.187746	13785.188477
6292.338054	0.097672	0.187746	13884.423828
6292.339099	0.097621	0.187746	13986.437500
6293.385225	1.062616	0.173329	532.370605
6293.386154	1.479998	0.173329	1907.288330
6293.387026	1.469799	0.173329	3188.952637
6293.388071	1.430555	0.173329	4683.882812
6293.389097	1.391151	0.173329	6111.204102
6293.389988	1.358686	0.173329	7321.793945
6293.390948	1.325105	0.173329	8593.894531
6293.392012	1.288986	0.173329	9965.375000
6293.392936	1.258879	0.173329	11128.579102
6293.393803	1.230908	0.173329	12195.776367
6293.394905	0.727793	0.173329	12997.804687
6293.395885	0.103125	0.173329	13098.867187
6293.396774	0.097551	0.173329	13185.589844
6293.397650	0.097767	0.173329	13271.234375
6293.398657	0.097841	0.173329	13369.759766
6293.399582	0.097636	0.173329	13460.072266
6293.400498	0.097636	0.173329	13549.506836
6293.401356	0.097672	0.173329	13633.309570
6293.402409	0.097632	0.173329	13736.116211
6293.403287	0.097668	0.173329	13821.869141
6293.404160	0.097614	0.173329	13907.085937
6294.388263	1.087441	0.188556	560.032349
6294.389235	1.481572	0.188556	2000.120605
6294.390102	1.467938	0.188556	3272.822998
6294.391134	1.429362	0.188556	4747.924316
6294.392187	1.389199	0.188556	6210.750977
6294.393068	1.356189	0.188556	7405.553223
6294.393980	1.323596	0.188556	8612.672852
6294.395080	1.287290	0.188556	10028.692383
6294.396019	1.256722	0.188556	11208.754883
6294.396893	1.229095	0.188556	12282.984375
6294.397931	0.710244	0.188556	13020.217773
6294.398963	0.101792	0.188556	13125.267578
6294.399848	0.097665	0.188556	13211.701172
6294.400801	0.097610	0.188556	13304.723633
6294.401866	0.097756	0.188556	13408.833984
6294.402794	0.097621	0.188556	13499.425781
6294.403656	0.097654	0.188556	13583.603516
6294.404733	0.097738	0.188556	13688.867187
6294.405734	0.097562	0.188556	13786.527344
6294.406618	0.097581	0.188556	13872.788086
6294.407594	0.097756	0.188556	13968.198242
6295.455295	1.108561	0.174082	605.274170
6295.456194	1.480452	0.174082	1936.200195
6295.457068	1.469579	0.174082	3220.612061
6295.458065	1.431497	0.174082	4647.814453
6295.459072	1.392129	0.174082	6049.688477
6295.459970	1.360159	0.174082	7271.110840
6295.460839	1.328181	0.174082	8425.300781
6295.461936	1.292168	0.174082	9842.808594
6295.462850	1.261999	0.174082	10996.276367
6295.463734	1.234493	0.174082	12087.568359
6295.464737	0.913671	0.174082	13003.980469
6295.465748	0.114657	0.174082	13119.898437
6295.466640	0.097570	0.174082	13206.930664
6295.467500	0.097606	0.174082	13290.872070
6295.468599	0.097771	0.174082	13398.322266
6295.469495	0.097562	0.174082	13485.738281
6295.470353	0.097603	0.174082	13569.481445
6295.471448	0.097852	0.174082	13676.628906
6295.472433	0.097584	0.174082	13772.749023
6295.473315	0.097559	0.174082	13858.795898
6295.474305	0.097709	0.174082	13955.527344
6296.457759	1.081472	0.187903	552.632263
6296.458780	1.482286	0.187903	2066.046631
6296.459676	1.465518	0.187903	3379.150391
6296.460641	1.428702	0.187903	4757.848145
6296.461699	1.388031	0.187903	6226.384766
6296.462626	1.354504	0.187903	7482.010254
6296.463497	1.322706	0.187903	8634.087891
6296.464576	1.286975	0.187903	10022.734375
6296.465587	1.254115	0.187903	11290.644531
6296.466490	1.226733	0.187903	12398.384766
6296.467482	0.666702	0.187903	13059.752930
6296.468536	0.100573	0.187903	13165.756836
6296.469438	0.097544	0.187903	13253.741211
6296.470355	0.097544	0.187903	13343.189453
6296.471221	0.097698	0.187903	13427.795898
6296.472270	0.097562	0.187903	13530.138672
6296.473154	0.097738	0.187903	13616.539062
6296.474025	0.097577	0.187903	13701.528320
6296.475030	0.097650	0.187903	13799.666992
6296.475934	0.097632	0.187903	13887.925781
6296.476854	0.097650	0.187903	13977.763672
6297.526210	0.997969	0.172644	428.128571
6297.527167	1.472230	0.172644	1837.052856
6297.528240	1.465100	0.172644	3409.105225
6297.529155	1.429340	0.172644	4716.951172
6297.530030	1.395190	0.172644	5937.742676
6297.531095	1.356698	0.172644	7382.625977
6297.532105	1.321080	0.172644	8716.916992
6297.533001	1.291022	0.172644	9873.672852
6297.533977	1.259392	0.172644	11102.839844
6297.535044	1.226422	0.172644	12411.432617
6297.535964	0.734509	0.172644	13087.181641
6297.536824	0.109548	0.172644	13181.393555
6297.537941	0.097723	0.172644	13290.550781
6297.538913	0.097522	0.172644	13385.341797
6297.539778	0.097694	0.172644	13469.847656
6297.540875	0.097720	0.172644	13577.045898
6297.541910	0.097636	0.172644	13678.098633
6297.542798	0.097577	0.172644	13764.747070
6297.543718	0.097595	0.172644	13854.535156
6297.544782	0.097778	0.172644	13958.571289
6297.545712	0.097603	0.172644	14049.341797
6298.526193	1.045085	0.189144	498.505737
6298.527080	1.476211	0.189144	1807.904907
6298.528049	1.469524	0.189144	3231.873535
6298.529012	1.432628	0.189144	4611.494629
6298.529938	1.397106	0.189144	5905.214355
6298.530808	1.364359	0.189144	7092.207031
6298.531861	1.328174	0.189144	8490.774414
6298.532737	1.297562	0.189144	9627.439453
6298.533608	1.268950	0.189144	10732.695312
6298.534657	1.235852	0.189144	12029.103516
6298.535616	1.027379	0.189144	13014.360352
6298.536497	0.162231	0.189144	13157.286133
6298.537429	0.097504	0.189144	13248.159180
6298.538490	0.097731	0.189144	13351.851562
6298.539377	0.097672	0.189144	13438.486328
6298.540237	0.097668	0.189144	13522.481445
6298.541279	0.097753	0.189144	13624.339844
6298.542237	0.097657	0.189144	13717.895508
6298.543109	0.097562	0.189144	13802.969727
6298.544008	0.097683	0.189144	13890.787109
6298.545080	0.097723	0.189144	13995.546875
6299.595716	1.005029	0.171121	433.167572
6299.596585	1.471974	0.171121	1712.312866
6299.597683	1.466620	0.171121	3322.661621
6299.598679	1.428219	0.171121	4745.167969
6299.599580	1.393803	0.171121	6000.983887
6299.600572	1.357613	0.171121	7347.736328
6299.601634	1.321036	0.171121	8750.676758
6299.602527	1.290084	0.171121	9902.721680
6299.603423	1.260231	0.171121	11031.888672
6299.604532	1.226422	0.171121	12391.991211
6299.605501	0.698467	0.171121	13068.805664
6299.606367	0.106674	0.171121	13161.184570
6299.607429	0.097771	0.171121	13265.017578
6299.608455	0.097588	0.171121	13365.142578
6299.609347	0.097581	0.171121	13452.184570
6299.610300	0.097606	0.171121	13545.203125
6299.611351	0.097632	0.171121	13647.814453
6299.612280	0.097632	0.171121	13738.514648
6299.613141	0.097592	0.171121	13822.541016
6299.614215	0.097764	0.171121	13927.539062
6299.615226	0.097548	0.171121	14026.160156
6300.595658	1.011768	0.189201	442.142456
6300.596528	1.472563	0.189201	1723.272583
6300.597544	1.469473	0.189201	3216.256836
6300.598554	1.431277	0.189201	4661.846680
6300.599437	1.396655	0.189201	5895.093262
6300.600307	1.363059	0.189201	7080.954590
6300.601427	1.325416	0.189201	8565.420898
6300.602332	1.294047	0.189201	9736.533203
6300.603215	1.265731	0.189201	10854.173828
6300.604206	1.234830	0.189201	12077.890625
6300.605198	0.955606	0.189201	13025.851562
6300.606091	0.136586	0.189201	13147.822266
6300.606952	0.097581	0.189201	13231.838867
6300.608056	0.097738	0.189201	13339.741211
6300.608961	0.097625	0.189201	13428.091797
6300.609821	0.097628	0.189201	13512.051758
6300.610899	0.097793	0.189201	13617.472656
6300.611901	0.097496	0.189201	13715.164062
6300.612780	0.097588	0.189201	13800.943359
6300.613778	0.097892	0.189201	13898.639648
6300.614828	0.097646	0.189201	14001.167969
