time (s)	coil I (A)	last det (V)	int current (uC)
3900.824883	1.100706	0.153469	569.064758
3900.825777	1.485121	0.153469	1896.762695
3900.826681	1.473955	0.153469	3229.218018
3900.827789	1.432723	0.153469	4816.675781
3900.828735	1.396095	0.153469	6137.381836
3900.829602	1.363488	0.153469	7319.525391
3900.830664	1.326335	0.153469	8728.093750
3900.831701	0.593723	0.153469	9343.785156
3900.832582	0.101620	0.153469	9433.312500
3900.833534	0.097397	0.153469	9526.035156
3900.834588	0.097540	0.153469	9628.842773
3900.835500	0.097339	0.153469	9717.616211
3900.836368	0.097386	0.153469	9802.147461
3900.837433	0.097573	0.153469	9906.062500
3900.838440	0.097423	0.153469	10004.167969
3900.839336	0.097463	0.153469	10091.495117
3900.840318	0.097471	0.153469	10187.210937
3900.841379	0.097551	0.153469	10290.712891
3901.891344	1.064528	0.151403	540.780029
3901.892241	1.484403	0.151403	1872.289551
3901.893108	1.475112	0.151403	3151.211914
3901.894249	1.433613	0.151403	4786.964844
3901.895211	1.396161	0.151403	6130.071289
3901.896085	1.363400	0.151403	7321.682617
3901.897135	1.326973	0.151403	8715.003906
3901.898173	0.604863	0.151403	9342.851562
3901.899070	0.101041	0.151403	9433.485352
3901.900011	0.097397	0.151403	9525.136719
3901.901063	0.097504	0.151403	9627.710937
3901.901999	0.097430	0.151403	9718.906250
3901.902861	0.097441	0.151403	9802.900391
3901.903918	0.097529	0.151403	9905.989258
3901.904933	0.097390	0.151403	10004.839844
3901.905814	0.097522	0.151403	10090.756836
3901.906796	0.097614	0.151403	10186.613281
3901.907844	0.097485	0.151403	10288.778320
3902.897927	1.058247	0.157183	530.181763
3902.898824	1.483685	0.157183	1861.047485
3902.899691	1.475438	0.157183	3140.252441
3902.900818	1.434364	0.157183	4756.780762
3902.901784	1.396527	0.157183	6105.826172
3902.902657	1.364608	0.157183	7297.128906
3902.903717	1.327083	0.157183	8703.835937
3902.904762	0.604237	0.157183	9335.263672
3902.905657	0.101477	0.157183	9426.085937
3902.906595	0.097354	0.157183	9517.403320
3902.907652	0.097427	0.157183	9620.383789
3902.908585	0.097434	0.157183	9711.290039
3902.909444	0.097394	0.157183	9794.951172
3902.910503	0.097375	0.157183	9898.072266
3902.911517	0.097317	0.157183	9996.751953
3902.912398	0.097419	0.157183	10082.578125
3902.913367	0.097463	0.157183	10177.020508
3902.914422	0.097482	0.157183	10279.863281
3903.955901	0.993146	0.157312	424.073212
3903.956771	1.476665	0.157312	1708.771973
3903.957824	1.474655	0.157312	3261.583252
3903.958733	1.439301	0.157312	4569.907227
3903.959654	1.404104	0.157312	5863.086914
3903.960524	1.369460	0.157312	7054.517578
3903.961577	1.333612	0.157312	8458.811523
3903.962476	1.012361	0.157312	9368.923828
3903.963344	0.144463	0.157312	9494.317383
3903.964346	0.097441	0.157312	9591.954102
3903.965265	0.097489	0.157312	9681.546875
3903.966177	0.097434	0.157312	9770.407227
3903.967052	0.097463	0.157312	9855.687500
3903.968086	0.097452	0.157312	9956.453125
3903.968976	0.097463	0.157312	10043.195312
3903.969837	0.097482	0.157312	10127.126953
3903.970910	0.097460	0.157312	10231.701172
3903.971847	0.097456	0.157312	10323.017578
3904.970182	1.002074	0.160813	426.883484
3904.971154	1.477947	0.160813	1863.447754
3904.972030	1.476669	0.160813	3157.009521
3904.972919	1.442728	0.160813	4439.594727
3904.973831	1.406565	0.160813	5722.381836
3904.974839	1.369156	0.160813	7102.491699
3904.975775	1.335857	0.160813	8352.853516
3904.976657	1.118035	0.160813	9338.959961
3904.977663	0.152937	0.160813	9492.814453
3904.978577	0.097178	0.160813	9581.634766
3904.979502	0.097386	0.160813	9671.716797
3904.980365	0.097482	0.160813	9755.843750
3904.981398	0.097375	0.160813	9856.432617
3904.982280	0.097401	0.160813	9942.340820
3904.983138	0.097434	0.160813	10025.939453
3904.984215	0.097526	0.160813	10130.974609
3904.985121	0.097441	0.160813	10219.256836
3904.986000	0.097354	0.160813	10304.831055
3906.024439	1.050630	0.160180	507.454224
3906.025319	1.481411	0.160180	1811.095947
3906.026263	1.475508	0.160180	3203.975098
3906.027330	1.435027	0.160180	4735.148437
3906.028274	1.398516	0.160180	6055.347168
3906.029138	1.365278	0.160180	7234.947754
3906.030214	1.328115	0.160180	8664.000000
3906.031245	0.665310	0.160180	9349.934570
3906.032118	0.103740	0.160180	9440.500000
3906.033092	0.097434	0.160180	9535.400391
3906.034160	0.097529	0.160180	9639.561523
3906.035068	0.097416	0.160180	9728.014648
3906.035934	0.097430	0.160180	9812.389648
3906.037007	0.097537	0.160180	9917.046875
3906.038011	0.097408	0.160180	10014.844727
3906.038907	0.097361	0.160180	10102.080078
3906.039892	0.097496	0.160180	10198.114258
3906.040950	0.097397	0.160180	10301.161133
3907.041983	0.995094	0.161643	424.905151
3907.042963	1.477441	0.161643	1872.797607
3907.044027	1.470242	0.161643	3437.134766
3907.044939	1.434547	0.161643	4745.441895
3907.045813	1.399684	0.161643	5968.765625
3907.046884	1.360723	0.161643	7426.099609
3907.047884	1.325153	0.161643	8751.251953
3907.048784	0.736776	0.161643	9414.350586
3907.049771	0.106501	0.161643	9519.467773
3907.050823	0.097540	0.161643	9622.080078
3907.051730	0.097496	0.161643	9710.508789
3907.052591	0.097489	0.161643	9794.447266
3907.053718	0.097592	0.161643	9904.432617
3907.054687	0.097533	0.161643	9998.942383
3907.055552	0.097456	0.161643	10083.242187
3907.056650	0.097533	0.161643	10190.333008
3907.057685	0.097555	0.161643	10291.302734
3907.058579	0.097427	0.161643	10378.402344
3908.093247	1.108649	0.151354	601.996216
3908.094277	1.488003	0.151354	2134.639160
3908.095163	1.470139	0.151354	3437.182617
3908.096132	1.433390	0.151354	4826.137207
3908.097193	1.392052	0.151354	6303.104492
3908.098130	1.357467	0.151354	7575.051270
3908.098993	1.326086	0.151354	8719.463867
3908.100068	0.589362	0.151354	9353.027344
3908.101077	0.098987	0.151354	9452.905273
3908.101949	0.097383	0.151354	9537.823242
3908.102927	0.097537	0.151354	9633.213867
3908.103980	0.097478	0.151354	9735.858398
3908.104889	0.097419	0.151354	9824.413086
3908.105761	0.097408	0.151354	9909.353516
3908.106863	0.097456	0.151354	10016.750000
3908.107861	0.097372	0.151354	10113.926758
3908.108758	0.097419	0.151354	10201.311523
3908.109747	0.097482	0.151354	10297.720703
3909.109226	1.024420	0.153505	486.599579
3909.110314	1.486659	0.153505	2104.084473
3909.111271	1.468055	0.153505	3509.013672
3909.112139	1.434269	0.153505	4753.958984
3909.113201	1.393444	0.153505	6233.795898
3909.114218	1.356229	0.153505	7613.081055
3909.115117	1.324391	0.153505	8803.708008
3909.116089	0.647520	0.153505	9433.096680
3909.117133	0.099789	0.153505	9537.276367
3909.118050	0.097324	0.153505	9626.522461
3909.118909	0.097434	0.153505	9710.218750
3909.119990	0.097573	0.153505	9815.695312
3909.120989	0.097456	0.153505	9913.053711
3909.121867	0.097357	0.153505	9998.533203
3909.122869	0.097463	0.153505	10096.191406
3909.123925	0.097386	0.153505	10199.031250
3909.124816	0.097401	0.153505	10285.815430
3909.125678	0.097445	0.153505	10369.813477
3910.163467	1.066424	0.150545	535.345093
3910.164420	1.485659	0.150545	1951.178345
3910.165295	1.474622	0.150545	3241.472168
3910.166371	1.433430	0.150545	4783.842773
3910.167410	1.393575	0.150545	6231.767578
3910.168312	1.360045	0.150545	7458.528320
3910.169276	1.326240	0.150545	8737.023437
3910.170332	0.569279	0.150545	9338.181641
3910.171264	0.099840	0.150545	9431.232422
3910.172125	0.097419	0.150545	9515.110352
3910.173207	0.097518	0.150545	9620.625000
3910.174203	0.097449	0.150545	9717.683594
3910.175084	0.097346	0.150545	9803.445312
3910.176088	0.097456	0.150545	9901.291016
3910.177138	0.097562	0.150545	10003.731445
3910.178033	0.097412	0.150545	10090.915039
3910.178958	0.097416	0.150545	10181.024414
3910.179816	0.097460	0.150545	10264.644531
3911.173650	1.067190	0.160829	538.930908
3911.174563	1.484143	0.160829	1893.953613
3911.175427	1.474856	0.160829	3168.229004
3911.176528	1.434521	0.160829	4747.637207
3911.177531	1.395447	0.160829	6147.270508
3911.178410	1.362144	0.160829	7344.594727
3911.179419	1.327295	0.160829	8683.834961
3911.180479	0.614183	0.160829	9334.869141
3911.181365	0.101246	0.160829	9424.573242
3911.182237	0.097354	0.160829	9509.465820
3911.183351	0.097449	0.160829	9618.023437
3911.184315	0.097419	0.160829	9711.935547
3911.185182	0.097394	0.160829	9796.375977
3911.186199	0.097471	0.160829	9895.503906
3911.187240	0.097489	0.160829	9996.990234
3911.188130	0.097386	0.160829	10083.664062
3911.189042	0.097463	0.160829	10172.550781
3911.190122	0.097518	0.160829	10277.870117
3912.238781	0.997548	0.151878	424.955261
3912.239819	1.481375	0.151878	1962.622070
3912.240791	1.470399	0.151878	3391.850098
3912.241721	1.435477	0.151878	4726.843750
3912.242584	1.399684	0.151878	5934.770996
3912.243693	1.360968	0.151878	7444.084473
3912.244603	1.328141	0.151878	8652.692383
3912.245492	0.856791	0.151878	9414.378906
3912.246498	0.111775	0.151878	9526.824219
3912.247473	0.097386	0.151878	9621.776367
3912.248341	0.097474	0.151878	9706.383789
3912.249398	0.097632	0.151878	9809.581055
3912.250445	0.097452	0.151878	9911.613281
3912.251339	0.097522	0.151878	9998.797852
3912.252259	0.097551	0.151878	10088.544922
3912.253352	0.097522	0.151878	10195.136719
3912.254302	0.097460	0.151878	10287.723633
3912.255160	0.097460	0.151878	10371.343750
3913.237948	0.998635	0.166058	424.420013
3913.238821	1.476705	0.166058	1713.583740
3913.239775	1.477090	0.166058	3122.727539
3913.240763	1.439813	0.166058	4545.263184
3913.241692	1.403870	0.166058	5849.458008
3913.242559	1.371552	0.166058	7038.593262
3913.243608	1.334864	0.166058	8438.866211
3913.244509	1.032590	0.166058	9369.230469
3913.245393	0.146499	0.166058	9498.735352
3913.246284	0.097397	0.166058	9585.516602
3913.247334	0.097445	0.166058	9687.833984
3913.248236	0.097482	0.166058	9775.762695
3913.249099	0.097467	0.166058	9859.876953
3913.250196	0.097603	0.166058	9966.947266
3913.251104	0.097419	0.166058	10055.404297
3913.251984	0.097548	0.166058	10141.246094
3913.252985	0.097500	0.166058	10238.843750
3913.253985	0.097493	0.166058	10336.335937
3914.309916	1.075507	0.154005	544.206299
3914.310841	1.485018	0.154005	1917.848145
3914.311707	1.474698	0.154005	3194.937012
3914.312795	1.434012	0.154005	4755.142578
3914.313817	1.394821	0.154005	6180.649414
3914.314699	1.361558	0.154005	7381.542969
3914.315711	1.326731	0.154005	8724.194336
3914.316763	0.589940	0.154005	9344.811523
3914.317654	0.100876	0.154005	9434.692383
3914.318509	0.097434	0.154005	9517.998047
3914.319613	0.097515	0.154005	9625.654297
3914.320569	0.097317	0.154005	9718.689453
3914.321448	0.097456	0.154005	9804.353516
3914.322454	0.097537	0.154005	9902.475586
3914.323507	0.097456	0.154005	10005.096680
3914.324394	0.097412	0.154005	10091.500977
3914.325258	0.097581	0.154005	10175.810547
3914.326391	0.097599	0.154005	10286.389648
3915.306532	1.082545	0.167178	557.510742
3915.307450	1.484652	0.167178	1920.421387
3915.308316	1.474449	0.167178	3197.294434
3915.309417	1.433320	0.167178	4775.379883
3915.310424	1.394344	0.167178	6179.484863
3915.311303	1.362015	0.167178	7376.696289
3915.312329	1.326563	0.167178	8737.749023
3915.313384	0.581704	0.167178	9351.447266
3915.314273	0.100693	0.167178	9440.963867
3915.315130	0.097408	0.167178	9524.443359
3915.316247	0.097507	0.167178	9633.359375
3915.317205	0.097401	0.167178	9726.669922
3915.318070	0.097471	0.167178	9810.982422
3915.319101	0.097529	0.167178	9911.535156
3915.320147	0.097438	0.167178	10013.455078
3915.321035	0.097438	0.167178	10099.979492
3915.321937	0.097438	0.167178	10187.868164
3915.323020	0.097518	0.167178	10293.480469
3916.380625	1.013060	0.147209	443.720367
3916.381490	1.476841	0.147209	1721.187622
3916.382561	1.472761	0.147209	3298.514648
3916.383577	1.434042	0.147209	4755.500977
3916.384457	1.399501	0.147209	5987.061523
3916.385457	1.363279	0.147209	7350.340332
3916.386525	1.325446	0.147209	8765.916016
3916.387430	0.718033	0.147209	9415.736328
3916.388286	0.107058	0.147209	9507.377930
3916.389373	0.097533	0.147209	9613.396484
3916.390349	0.097438	0.147209	9708.496094
3916.391232	0.097405	0.147209	9794.504883
3916.392234	0.097588	0.147209	9892.288086
3916.393285	0.097438	0.147209	9994.695312
3916.394175	0.097419	0.147209	10081.398437
3916.395046	0.097485	0.147209	10166.308594
3916.396144	0.097570	0.147209	10273.440430
3916.397112	0.097357	0.147209	10367.682617
3917.375557	1.127747	0.164366	630.410339
3917.376598	1.487948	0.164366	2179.364258
3917.377496	1.468279	0.164366	3497.878418
3917.378437	1.431925	0.164366	4845.319824
3917.379490	1.391342	0.164366	6310.402344
3917.380437	1.356570	0.164366	7595.074219
3917.381302	1.325112	0.164366	8741.295898
3917.382373	0.561921	0.164366	9343.113281
3917.383385	0.098749	0.164366	9443.046875
3917.384269	0.097390	0.164366	9529.139648
3917.385233	0.097518	0.164366	9623.147461
3917.386282	0.097471	0.164366	9725.394531
3917.387211	0.097419	0.164366	9815.897461
3917.388069	0.097460	0.164366	9899.517578
3917.389141	0.097599	0.164366	10004.143555
3917.390142	0.097361	0.164366	10101.601562
3917.391014	0.097460	0.164366	10186.586914
3917.391998	0.097489	0.164366	10282.515625
3918.448824	1.004535	0.150541	422.909210
3918.449888	1.485403	0.150541	2003.377808
3918.450782	1.472926	0.150541	3320.173828
3918.451661	1.439011	0.150541	4585.064453
3918.452624	1.402013	0.150541	5935.203125
3918.453613	1.364897	0.150541	7285.086914
3918.454539	1.332264	0.150541	8518.763672
3918.455416	1.005835	0.150541	9400.880859
3918.456458	0.120970	0.150541	9526.931641
3918.457342	0.097284	0.150541	9612.930664
3918.458199	0.097408	0.150541	9696.410156
3918.459227	0.097551	0.150541	9796.692383
3918.460195	0.097394	0.150541	9890.969727
3918.461068	0.097423	0.150541	9976.020508
3918.461923	0.097449	0.150541	10059.338867
3918.463062	0.097441	0.150541	10170.324219
3918.463963	0.097478	0.150541	10258.152344
3918.464842	0.097383	0.150541	10343.751953
3919.443654	1.005260	0.165167	436.282837
3919.444527	1.476910	0.165167	1725.625732
3919.445601	1.472340	0.165167	3306.918945
3919.446622	1.433130	0.165167	4770.144531
3919.447526	1.398505	0.165167	6034.392578
3919.448518	1.361840	0.165167	7385.337402
3919.449584	1.324406	0.165167	8797.153320
3919.450507	0.657338	0.165167	9403.875977
3919.451370	0.104304	0.165167	9493.890625
3919.452480	0.097588	0.165167	9602.212891
3919.453450	0.097423	0.165167	9696.712891
3919.454317	0.097485	0.165167	9781.232422
3919.455382	0.097526	0.165167	9885.097656
3919.456423	0.097588	0.165167	9986.686523
3919.457313	0.097529	0.165167	10073.487305
3919.458187	0.097507	0.165167	10158.708984
3919.459115	0.097628	0.165167	10249.307617
3919.460114	0.097452	0.165167	10346.662109
3920.516556	1.023102	0.156313	453.234100
3920.517431	1.478016	0.156313	1746.498413
3920.518433	1.474409	0.156313	3223.856445
3920.519495	1.434481	0.156313	4747.275391
3920.520400	1.398768	0.156313	6013.160645
3920.521267	1.365308	0.156313	7196.882324
3920.522368	1.327522	0.156313	8658.484375
3920.523339	0.747975	0.156313	9384.767578
3920.524198	0.108395	0.156313	9477.878906
3920.525271	0.097405	0.156313	9582.394531
3920.526296	0.097438	0.156313	9682.268555
3920.527178	0.097394	0.156313	9768.169922
3920.528103	0.097474	0.156313	9858.333984
3920.529172	0.097375	0.156313	9962.428711
3920.530112	0.097412	0.156313	10053.996094
3920.530967	0.097467	0.156313	10137.330078
3920.531999	0.097540	0.156313	10237.991211
3920.533029	0.097383	0.156313	10338.295898
3921.513675	0.998665	0.170586	437.415070
3921.514536	1.476438	0.170586	1708.628052
3921.515544	1.474530	0.170586	3194.954346
3921.516522	1.436946	0.170586	4600.287109
3921.517450	1.401204	0.170586	5900.604004
3921.518316	1.367853	0.170586	7085.164551
3921.519445	1.329727	0.170586	8586.425781
3921.520353	0.885762	0.170586	9390.697266
3921.521218	0.120359	0.170586	9494.807617
3921.522301	0.097507	0.170586	9600.408203
3921.523262	0.097456	0.170586	9694.063477
3921.524146	0.097474	0.170586	9780.230469
3921.525036	0.097584	0.170586	9867.080078
3921.526129	0.097463	0.170586	9973.607422
3921.527006	0.097522	0.170586	10059.133789
3921.527865	0.097566	0.170586	10142.943359
3921.528973	0.097570	0.170586	10251.050781
3921.529932	0.097368	0.170586	10344.426758
3922.584903	1.098582	0.162529	621.797180
3922.585966	1.486677	0.162529	2202.135254
3922.586858	1.466352	0.162529	3510.121582
3922.587731	1.430713	0.162529	4759.133789
3922.588833	1.390210	0.162529	6291.145020
3922.589804	1.354966	0.162529	7606.816895
3922.590676	1.323362	0.162529	8760.788086
3922.591710	0.563947	0.162529	9343.909180
3922.592751	0.098525	0.162529	9446.473633
3922.593643	0.097467	0.162529	9533.414062
3922.594578	0.097625	0.162529	9624.693359
3922.595641	0.097500	0.162529	9728.335937
3922.596586	0.097478	0.162529	9820.453125
3922.597451	0.097441	0.162529	9904.740234
3922.598520	0.097734	0.162529	10009.218750
3922.599539	0.097460	0.162529	10108.530273
3922.600433	0.097321	0.162529	10195.535156
3922.601393	0.097595	0.162529	10289.226562
3923.584534	1.038424	0.169816	536.865295
3923.585597	1.486461	0.169816	2116.973633
3923.586534	1.467788	0.169816	3492.291016
3923.587397	1.433569	0.169816	4729.461426
3923.588452	1.393184	0.169816	6199.270020
3923.589471	1.355837	0.169816	7580.868164
3923.590364	1.324398	0.169816	8763.555664
3923.591343	0.635222	0.169816	9385.438477
3923.592403	0.099441	0.169816	9490.845703
3923.593318	0.097496	0.169816	9580.054687
3923.594183	0.097467	0.169816	9664.363281
3923.595277	0.097577	0.169816	9771.112305
3923.596282	0.097548	0.169816	9869.147461
3923.597175	0.097438	0.169816	9956.159180
3923.598169	0.097566	0.169816	10053.139648
3923.599219	0.097438	0.169816	10155.449219
3923.600126	0.097485	0.169816	10243.868164
3923.600997	0.097452	0.169816	10328.749023
3924.653506	1.004542	0.158968	432.957703
3924.654461	1.476738	0.158968	1843.242676
3924.655526	1.469912	0.158968	3408.698975
3924.656463	1.433910	0.158968	4752.272461
3924.657333	1.399556	0.158968	5969.885742
3924.658413	1.360093	0.158968	7438.786133
3924.659425	1.323940	0.158968	8778.613281
3924.660325	0.708999	0.158968	9416.712891
3924.661318	0.104865	0.158968	9520.843750
3924.662371	0.097478	0.158968	9623.488281
3924.663276	0.097357	0.158968	9711.596680
3924.664135	0.097529	0.158968	9795.374023
3924.665236	0.097570	0.158968	9902.797852
3924.666200	0.097321	0.158968	9996.615234
3924.667120	0.097365	0.158968	10086.190430
3924.667999	0.097383	0.158968	10171.790039
3924.669019	0.097379	0.158968	10271.117187
3924.669919	0.097383	0.158968	10358.761719
3925.654582	1.091239	0.163838	597.998962
3925.655652	1.487146	0.163838	2189.245117
3925.656552	1.467466	0.163838	3509.964355
3925.657418	1.431980	0.163838	4750.059082
3925.658525	1.391389	0.163838	6290.327148
3925.659500	1.355625	0.163838	7612.061523
3925.660362	1.324966	0.163838	8754.181641
3925.661427	0.554744	0.163838	9344.983398
3925.662482	0.098408	0.163838	9448.803711
3925.663357	0.097485	0.163838	9534.103516
3925.664293	0.097390	0.163838	9625.260742
3925.665348	0.097460	0.163838	9728.081055
3925.666286	0.097386	0.163838	9819.429687
3925.667148	0.097445	0.163838	9903.427734
3925.668181	0.097482	0.163838	10004.125977
3925.669204	0.097408	0.163838	10103.774414
3925.670096	0.097412	0.163838	10190.666016
3925.671040	0.097540	0.163838	10282.744141
3926.722053	1.062026	0.161240	529.951172
3926.722994	1.484429	0.161240	1926.798584
3926.723877	1.474651	0.161240	3228.915283
3926.724876	1.437045	0.161240	4664.522949
3926.725890	1.397296	0.161240	6081.381348
3926.726776	1.364425	0.161240	7290.261719
3926.727639	1.332609	0.161240	8440.302734
3926.728748	0.784453	0.161240	9310.261719
3926.729660	0.108212	0.161240	9408.951172
3926.730516	0.097441	0.161240	9492.361328
3926.731581	0.097544	0.161240	9596.246094
3926.732575	0.097460	0.161240	9693.121094
3926.733461	0.097577	0.161240	9779.574219
3926.734449	0.097636	0.161240	9876.038086
3926.735508	0.097628	0.161240	9979.426758
3926.736413	0.097526	0.161240	10067.687500
3926.737274	0.097507	0.161240	10151.641602
3926.738369	0.097493	0.161240	10258.396484
3927.723722	1.005604	0.167947	440.454681
3927.724593	1.476764	0.167947	1726.716064
3927.725635	1.473647	0.167947	3262.256836
3927.726517	1.439659	0.167947	4532.036133
3927.727395	1.405397	0.167947	5765.974609
3927.728363	1.369702	0.167947	7091.846191
3927.729361	1.334875	0.167947	8424.051758
3927.730237	1.059159	0.167947	9351.875000
3927.731165	0.154706	0.167947	9495.442383
3927.732241	0.097467	0.167947	9600.317383
3927.733146	0.097379	0.167947	9688.445312
3927.734012	0.097441	0.167947	9772.829102
3927.735033	0.097522	0.167947	9872.399414
3927.735999	0.097449	0.167947	9966.535156
3927.736875	0.097401	0.167947	10051.858398
3927.737774	0.097452	0.167947	10139.467773
3927.738861	0.097452	0.167947	10245.398437
3927.739753	0.097397	0.167947	10332.277344
3928.792537	1.012749	0.156358	457.762573
3928.793401	1.477544	0.156358	1734.360596
3928.794449	1.472963	0.156358	3278.025391
3928.795499	1.433298	0.156358	4782.988770
3928.796379	1.398186	0.156358	6013.392578
3928.797313	1.363246	0.156358	7286.664062
3928.798399	1.325479	0.156358	8726.133789
3928.799334	0.705970	0.156358	9386.215820
3928.800200	0.106135	0.156358	9478.128906
3928.801243	0.097489	0.156358	9579.809570
3928.802263	0.097372	0.156358	9679.128906
3928.803152	0.097445	0.156358	9765.757812
3928.804120	0.097456	0.156358	9860.095703
3928.805173	0.097540	0.156358	9962.805664
3928.806095	0.097449	0.156358	10052.653320
3928.806955	0.097427	0.156358	10136.440430
3928.808049	0.097104	0.156358	10242.672852
3928.809035	0.097013	0.156358	10338.327148
3929.791296	1.113567	0.168507	605.780396
3929.792300	1.487622	0.168507	2099.353027
3929.793186	1.470040	0.168507	3401.808594
3929.794197	1.431790	0.168507	4849.347656
3929.795250	1.391122	0.168507	6314.198730
3929.796144	1.357852	0.168507	7528.118164
3929.797005	1.325742	0.168507	8669.582031
3929.798126	0.577167	0.168507	9316.585937
3929.799091	0.099177	0.168507	9412.291992
3929.799946	0.097386	0.168507	9495.557617
3929.801013	0.097515	0.168507	9599.605469
3929.802060	0.097452	0.168507	9701.637695
3929.802944	0.097266	0.168507	9787.620117
3929.803884	0.097522	0.168507	9879.291016
3929.804944	0.097372	0.168507	9982.504883
3929.805884	0.097372	0.168507	10074.034180
3929.806754	0.097441	0.168507	10158.808594
3929.807806	0.097489	0.168507	10261.367187
3930.861338	1.078652	0.160241	549.034058
3930.862307	1.485494	0.160241	1988.478149
3930.863178	1.473234	0.160241	3271.664551
3930.864250	1.432408	0.160241	4807.206543
3930.865283	1.392872	0.160241	6246.043945
3930.866161	1.359580	0.160241	7439.755371
3930.867079	1.327028	0.160241	8657.966797
3930.868168	0.595609	0.160241	9306.584961
3930.869116	0.100005	0.160241	9401.389648
3930.869982	0.097456	0.160241	9485.786133
3930.871029	0.097701	0.160241	9588.079102
3930.872056	0.097423	0.160241	9688.132812
3930.872943	0.097449	0.160241	9774.570312
3930.873903	0.097562	0.160241	9868.230469
3930.874952	0.097566	0.160241	9970.577148
3930.875879	0.097467	0.160241	10060.928711
3930.876739	0.097405	0.160241	10144.697266
3930.877817	0.097526	0.160241	10249.830078
3931.859648	1.001744	0.171818	429.748352
3931.860625	1.478090	0.171818	1873.842041
3931.861690	1.469026	0.171818	3438.354492
3931.862596	1.433767	0.171818	4737.347656
3931.863461	1.398596	0.171818	5947.133301
3931.864584	1.358456	0.171818	7472.679199
3931.865566	1.324449	0.171818	8773.289062
3931.866443	0.744983	0.171818	9426.638672
3931.867512	0.101887	0.171818	9535.555664
3931.868539	0.097357	0.171818	9635.541016
3931.869433	0.097441	0.171818	9722.653320
3931.870379	0.097610	0.171818	9814.992187
3931.871435	0.097603	0.171818	9918.060547
3931.872379	0.097350	0.171818	10009.958984
3931.873241	0.097397	0.171818	10093.916016
3931.874305	0.097522	0.171818	10197.679687
3931.875311	0.097368	0.171818	10295.631836
3931.876192	0.097394	0.171818	10381.435547
3932.930487	0.989147	0.162126	416.430786
3932.931497	1.479598	0.162126	1910.825195
3932.932419	1.473051	0.162126	3268.977783
3932.933350	1.437583	0.162126	4607.367676
3932.934218	1.402690	0.162126	5824.902832
3932.935274	1.364703	0.162126	7266.029785
3932.936159	1.333641	0.162126	8446.302734
3932.937020	1.013972	0.162126	9319.333008
3932.938126	0.120238	0.162126	9452.316406
3932.939022	0.097288	0.162126	9539.486328
3932.939898	0.097434	0.162126	9624.838867
3932.940882	0.097632	0.162126	9720.908203
3932.941891	0.097467	0.162126	9819.252930
3932.942783	0.097416	0.162126	9906.147461
3932.943645	0.097427	0.162126	9990.128906
3932.944731	0.097471	0.162126	10095.982422
3932.945664	0.097412	0.162126	10186.868164
3932.946545	0.097460	0.162126	10272.730469
3933.928225	1.076656	0.169550	549.094788
3933.929112	1.482737	0.169550	1864.282471
3933.930009	1.473940	0.169550	3186.406982
3933.931113	1.432954	0.169550	4768.388184
3933.932066	1.395857	0.169550	6098.639648
3933.932930	1.364249	0.169550	7277.351074
3933.933980	1.326654	0.169550	8670.337891
3933.935021	0.630571	0.169550	9326.762695
3933.935906	0.102572	0.169550	9417.539062
3933.936865	0.097485	0.169550	9511.027344
3933.937921	0.097493	0.169550	9613.979492
3933.938848	0.097419	0.169550	9704.287109
3933.939751	0.097372	0.169550	9792.213867
3933.940626	0.097386	0.169550	9877.426758
3933.941648	0.097430	0.169550	9977.000977
3933.942546	0.097361	0.169550	10064.430664
3933.943421	0.097423	0.169550	10149.675781
3933.944366	0.097522	0.169550	10241.833984
3934.999738	1.010566	0.164104	428.480133
3935.000822	1.484352	0.164104	2037.517456
3935.001819	1.466858	0.164104	3499.974609
3935.002721	1.432533	0.164104	4792.119141
3935.003724	1.394257	0.164104	6190.558594
3935.004782	1.355339	0.164104	7624.507812
3935.005674	1.323523	0.164104	8805.089844
3935.006571	0.688345	0.164104	9422.535156
3935.007681	0.099657	0.164104	9533.154297
3935.008634	0.097449	0.164104	9626.022461
3935.009506	0.097504	0.164104	9711.045898
3935.010554	0.097559	0.164104	9813.287109
3935.011584	0.097449	0.164104	9913.659180
3935.012477	0.097478	0.164104	10000.707031
3935.013434	0.097522	0.164104	10094.035156
3935.014476	0.097515	0.164104	10195.645508
3935.015410	0.097474	0.164104	10286.686523
3935.016272	0.097551	0.164104	10370.775391
3935.997773	1.109985	0.169478	636.021606
3935.998695	1.485886	0.169478	2006.008667
3935.999613	1.470784	0.169478	3356.187988
3936.000495	1.436140	0.169478	4622.863281
3936.001525	1.397047	0.169478	6061.821777
3936.002429	1.363704	0.169478	7294.609863
3936.003311	1.332594	0.169478	8469.958008
3936.004288	0.896887	0.169478	9346.216797
3936.005250	0.113199	0.169478	9455.114258
3936.006128	0.097346	0.169478	9540.583984
3936.007074	0.097511	0.169478	9632.829102
3936.008113	0.097471	0.169478	9734.101562
3936.008995	0.097493	0.169478	9820.089844
3936.009858	0.097489	0.169478	9904.222656
3936.010920	0.097456	0.169478	10007.720703
3936.011872	0.097412	0.169478	10100.457031
3936.012742	0.097434	0.169478	10185.224609
3936.013648	0.097478	0.169478	10273.540039
3937.070164	1.120719	0.162384	651.137695
3937.071231	1.487270	0.162384	2238.055176
3937.072119	1.466378	0.162384	3540.198975
3937.072993	1.430684	0.162384	4790.616211
3937.074112	1.389723	0.162384	6345.716309
3937.075070	1.354460	0.162384	7643.289062
3937.075931	1.323926	0.162384	8783.189453
3937.076983	0.551199	0.162384	9363.050781
3937.078007	0.098679	0.162384	9464.098633
3937.078878	0.097412	0.162384	9548.944336
3937.079807	0.097515	0.162384	9639.535156
3937.080885	0.097515	0.162384	9744.656250
3937.081826	0.097452	0.162384	9836.359375
3937.082695	0.097452	0.162384	9921.045898
3937.083741	0.097584	0.162384	10023.119141
3937.084772	0.097456	0.162384	10123.596680
3937.085662	0.097493	0.162384	10210.365234
3937.086628	0.097614	0.162384	10304.660156
3938.066778	1.133551	0.174606	663.127319
3938.067840	1.487278	0.174606	2242.616455
3938.068726	1.466646	0.174606	3542.064453
3938.069629	1.430424	0.174606	4833.736816
3938.070730	1.389470	0.174606	6363.543457
3938.071686	1.354497	0.174606	7658.442383
3938.072552	1.323633	0.174606	8804.708008
3938.073612	0.525535	0.174606	9361.774414
3938.074632	0.098437	0.174606	9462.180664
3938.075502	0.097419	0.174606	9546.935547
3938.076453	0.097496	0.174606	9639.654297
3938.077520	0.097467	0.174606	9743.651367
3938.078451	0.097383	0.174606	9834.314453
3938.079316	0.097482	0.174606	9918.635742
3938.080376	0.097471	0.174606	10021.955078
3938.081384	0.097496	0.174606	10120.231445
3938.082276	0.097416	0.174606	10207.125977
3938.083252	0.097610	0.174606	10302.393555
3939.139014	1.001320	0.158766	432.570038
3939.140047	1.481195	0.158766	1962.644653
3939.141095	1.467605	0.158766	3500.694824
3939.141989	1.432778	0.158766	4781.598633
3939.142939	1.396183	0.158766	6107.972656
3939.144020	1.356464	0.158766	7574.310059
3939.144962	1.323318	0.158766	8820.875000
3939.145829	0.706135	0.158766	9433.094727
3939.146871	0.101279	0.158766	9538.627930
3939.147891	0.097441	0.158766	9638.018555
3939.148780	0.097419	0.158766	9724.624023
3939.149744	0.097577	0.158766	9818.688477
3939.150800	0.097390	0.158766	9921.532227
3939.151726	0.097412	0.158766	10011.736328
3939.152587	0.097434	0.158766	10095.626953
3939.153675	0.097562	0.158766	10201.774414
3939.154679	0.097467	0.158766	10299.630859
3939.155569	0.097430	0.158766	10386.343750
3940.137005	1.089448	0.172269	563.244812
3940.137967	1.486033	0.172269	1992.808105
3940.138845	1.472655	0.172269	3285.799316
3940.139888	1.433203	0.172269	4780.629883
3940.140936	1.392836	0.172269	6240.321777
3940.141823	1.359840	0.172269	7446.500000
3940.142720	1.326855	0.172269	8636.689453
3940.143826	0.602292	0.172269	9302.825195
3940.144777	0.100173	0.172269	9398.089844
3940.145637	0.097321	0.172269	9481.785156
3940.146678	0.097511	0.172269	9583.293945
3940.147711	0.097471	0.172269	9683.981445
3940.148593	0.097460	0.172269	9769.941406
3940.149520	0.097419	0.172269	9860.249023
3940.150615	0.097500	0.172269	9967.011719
3940.151538	0.097478	0.172269	10056.984375
3940.152406	0.097419	0.172269	10141.544922
3940.153451	0.097537	0.172269	10243.470703
3941.206526	1.029730	0.156724	508.686707
3941.207583	1.486344	0.156724	2079.752197
3941.208486	1.469304	0.156724	3406.533936
3941.209355	1.435327	0.156724	4653.833008
3941.210407	1.394989	0.156724	6121.361328
3941.211365	1.360375	0.156724	7424.600586
3941.212250	1.327903	0.156724	8599.794922
3941.213192	0.814281	0.156724	9366.847656
3941.214248	0.103458	0.156724	9476.099609
3941.215138	0.097430	0.156724	9562.812500
3941.215999	0.097445	0.156724	9646.712891
3941.217061	0.097595	0.156724	9750.359375
3941.218011	0.097493	0.156724	9842.977539
3941.218870	0.097412	0.156724	9926.654297
3941.219918	0.097526	0.156724	10028.861328
3941.220941	0.097460	0.156724	10128.562500
3941.221821	0.097526	0.156724	10214.384766
3941.222747	0.097529	0.156724	10304.697266
3942.207727	1.057896	0.169200	491.921417
3942.208616	1.479738	0.169200	1807.408081
3942.209490	1.477017	0.169200	3098.320801
3942.210511	1.439469	0.169200	4568.018555
3942.211436	1.402225	0.169200	5865.077148
3942.212356	1.367571	0.169200	7123.242187
3942.213240	1.335355	0.169200	8303.696289
3942.214279	0.980387	0.169200	9322.318359
3942.215169	0.133396	0.169200	9441.041016
3942.216045	0.097306	0.169200	9526.281250
3942.217033	0.097485	0.169200	9622.596680
3942.218001	0.097317	0.169200	9716.799805
3942.218881	0.097343	0.169200	9802.460937
3942.219829	0.097478	0.169200	9894.870117
3942.220856	0.097427	0.169200	9994.927734
3942.221739	0.097427	0.169200	10080.955078
3942.222596	0.097463	0.169200	10164.481445
3942.223659	0.097485	0.169200	10268.108398
3943.272772	1.088914	0.164064	611.969421
3943.273836	1.486589	0.164064	2193.700439
3943.274742	1.466532	0.164064	3522.378418
3943.275608	1.431383	0.164064	4761.956055
3943.276717	1.390448	0.164064	6303.962891
3943.277690	1.354135	0.164064	7621.535645
3943.278560	1.324343	0.164064	8773.713867
3943.279574	0.574109	0.164064	9355.860352
3943.280646	0.098712	0.164064	9461.679687
3943.281519	0.097324	0.164064	9546.643555
3943.282387	0.097357	0.164064	9631.149414
3943.283515	0.097555	0.164064	9741.191406
3943.284468	0.097328	0.164064	9833.945312
3943.285335	0.097438	0.164064	9918.423828
3943.286366	0.097518	0.164064	10018.964844
3943.287405	0.097463	0.164064	10120.229492
3943.288297	0.097394	0.164064	10207.104492
3943.289230	0.097485	0.164064	10298.058594
3944.281035	1.005674	0.166517	440.485168
3944.281907	1.476387	0.166517	1727.894287
3944.282976	1.471893	0.166517	3301.348145
3944.284004	1.432526	0.166517	4773.984375
3944.284903	1.397461	0.166517	6030.301758
3944.285874	1.362015	0.166517	7352.818848
3944.286938	1.324259	0.166517	8761.830078
3944.287880	0.664376	0.166517	9387.672852
3944.288740	0.104714	0.166517	9477.727539
3944.289814	0.097489	0.166517	9582.430664
3944.290797	0.097445	0.166517	9678.218750
3944.291687	0.097430	0.166517	9764.931641
3944.292683	0.097562	0.166517	9862.103516
3944.293710	0.097533	0.166517	9962.269531
3944.294616	0.097511	0.166517	10050.614258
3944.295477	0.097555	0.166517	10134.609375
3944.296565	0.097441	0.166517	10240.625977
3944.297552	0.097482	0.166517	10336.840820
3945.337331	1.065004	0.164769	510.136749
3945.338220	1.480613	0.164769	1826.401489
3945.339141	1.474973	0.164769	3184.851807
3945.340025	1.440282	0.164769	4458.061035
3945.341035	1.402683	0.164769	5874.770996
3945.341966	1.367802	0.164769	7148.194336
3945.342849	1.335981	0.164769	8327.866211
3945.343883	0.980841	0.164769	9342.055664
3945.344780	0.132601	0.164769	9460.999023
3945.345664	0.097339	0.164769	9547.046875
3945.346642	0.097555	0.164769	9642.456055
3945.347611	0.097379	0.164769	9736.816406
3945.348536	0.097423	0.164769	9826.932617
3945.349395	0.097463	0.164769	9910.653320
3945.350419	0.097592	0.164769	10010.586914
3945.351317	0.097408	0.164769	10098.059570
3945.352195	0.097463	0.164769	10183.632812
3945.353081	0.097555	0.164769	10270.066406
3946.353184	1.055669	0.167697	558.448853
3946.354144	1.485546	0.167697	1984.572632
3946.355062	1.471029	0.167697	3334.977295
3946.355941	1.437089	0.167697	4598.178223
3946.356976	1.397816	0.167697	6044.917969
3946.357878	1.363832	0.167697	7275.094238
3946.358754	1.332704	0.167697	8442.542969
3946.359648	0.957594	0.167697	9298.631836
3946.360674	0.115627	0.167697	9417.265625
3946.361604	0.097324	0.167697	9507.777344
3946.362463	0.097452	0.167697	9591.489258
3946.363558	0.097427	0.167697	9698.171875
3946.364451	0.097423	0.167697	9785.170898
3946.365321	0.097412	0.167697	9869.919922
3946.366343	0.097529	0.167697	9969.594727
3946.367333	0.097438	0.167697	10066.057617
3946.368214	0.097493	0.167697	10151.948242
3946.369079	0.097577	0.167697	10236.352539
3947.405237	1.010508	0.169776	423.402771
3947.406358	1.484128	0.169776	2087.110840
3947.407322	1.467660	0.169776	3501.935059
3947.408184	1.433866	0.169776	4737.927734
3947.409242	1.392861	0.169776	6211.575195
3947.410307	1.354424	0.169776	7654.036621
3947.411188	1.322373	0.169776	8819.046875
3947.412149	0.641719	0.169776	9435.738281
3947.413208	0.099126	0.169776	9540.712891
3947.414143	0.097354	0.169776	9631.738281
3947.415009	0.097474	0.169776	9716.151367
3947.416055	0.097515	0.169776	9818.151367
3947.417076	0.097460	0.169776	9917.658203
3947.417965	0.097416	0.169776	10004.260742
3947.418938	0.097467	0.169776	10099.095703
3947.419997	0.097504	0.169776	10202.352539
3947.420920	0.097423	0.169776	10292.274414
3947.421785	0.097496	0.169776	10376.608398
3948.423872	0.993296	0.172862	426.123932
3948.424741	1.475486	0.172862	1708.321045
3948.425760	1.473691	0.172862	3210.012695
3948.426810	1.434192	0.172862	4715.914062
3948.427702	1.399164	0.172862	5963.968262
3948.428623	1.364971	0.172862	7221.106445
3948.429707	1.326632	0.172862	8659.175781
3948.430665	0.748425	0.172862	9376.166992
3948.431534	0.107780	0.172862	9469.827148
3948.432592	0.097445	0.172862	9572.923828
3948.433604	0.097346	0.172862	9671.438477
3948.434495	0.097350	0.172862	9758.176758
3948.435453	0.097383	0.172862	9851.469727
3948.436508	0.097427	0.172862	9954.254883
3948.437430	0.097390	0.172862	10044.048828
3948.438287	0.097394	0.172862	10127.515625
3948.439344	0.097515	0.172862	10230.588867
3948.440362	0.097474	0.172862	10329.817383
3949.473297	1.066230	0.168934	535.247681
3949.474193	1.482048	0.168934	1863.163086
3949.475055	1.473970	0.168934	3133.725098
3949.476158	1.433936	0.168934	4715.355957
3949.477125	1.396505	0.168934	6065.776367
3949.477987	1.364656	0.168934	7242.109375
3949.479044	1.327020	0.168934	8644.769531
3949.480122	0.626411	0.168934	9320.041016
3949.480996	0.101887	0.168934	9409.090820
3949.481943	0.097478	0.168934	9501.402344
3949.483022	0.097478	0.168934	9606.581055
3949.483952	0.097463	0.168934	9697.221680
3949.484817	0.097482	0.168934	9781.542969
3949.485877	0.097496	0.168934	9884.888672
3949.486890	0.097460	0.168934	9983.615234
3949.487783	0.097452	0.168934	10070.640625
3949.488742	0.097507	0.168934	10164.150391
3949.489796	0.097405	0.168934	10266.815430
3950.492689	1.069871	0.176628	538.144897
3950.493650	1.485092	0.176628	1965.317871
3950.494523	1.473248	0.176628	3251.463867
3950.495606	1.431519	0.176628	4801.798340
3950.496655	1.391627	0.176628	6261.615234
3950.497556	1.357753	0.176628	7484.950195
3950.498504	1.324611	0.176628	8740.680664
3950.499583	0.531240	0.176628	9313.888672
3950.500520	0.099067	0.176628	9406.714844
3950.501381	0.097386	0.176628	9490.564453
3950.502449	0.097588	0.176628	9594.788086
3950.503463	0.097434	0.176628	9693.585937
3950.504353	0.097397	0.176628	9780.269531
3950.505329	0.097551	0.176628	9875.479492
3950.506375	0.097434	0.176628	9977.395508
3950.507288	0.097478	0.176628	10066.392578
3950.508145	0.097511	0.176628	10149.959961
3950.509232	0.097467	0.176628	10255.906250
3951.543288	1.056247	0.170006	499.605042
3951.544174	1.479924	0.170006	1810.817871
3951.545051	1.476354	0.170006	3105.580078
3951.546030	1.440216	0.170006	4515.551758
3951.547003	1.402236	0.170006	5879.927734
3951.547884	1.368735	0.170006	7085.783691
3951.548836	1.334366	0.170006	8356.100586
3951.549890	0.908434	0.170006	9313.589844
3951.550787	0.121681	0.170006	9422.737305
3951.551653	0.097277	0.170006	9506.978516
3951.552687	0.097577	0.170006	9607.873047
3951.553634	0.097343	0.170006	9700.056641
3951.554511	0.097361	0.170006	9785.442383
3951.555393	0.097566	0.170006	9871.495117
3951.556488	0.097412	0.170006	9978.161133
3951.557378	0.097372	0.170006	10064.822266
3951.558240	0.097419	0.170006	10148.797852
3951.559276	0.097452	0.170006	10249.758789
3952.560325	1.009028	0.177752	439.936340
3952.561255	1.479873	0.177752	1816.218262
3952.562124	1.476075	0.177752	3098.927734
3952.563168	1.437437	0.177752	4599.611328
3952.564067	1.402610	0.177752	5860.557617
3952.564950	1.369255	0.177752	7069.610352
3952.565929	1.335359	0.177752	8376.926758
3952.566915	0.991915	0.177752	9354.955078
3952.567802	0.136674	0.177752	9476.184570
3952.568692	0.097405	0.177752	9562.875000
3952.569773	0.097474	0.177752	9668.245117
3952.570664	0.097412	0.177752	9755.039062
3952.571528	0.097460	0.177752	9839.244141
3952.572548	0.097449	0.177752	9938.641602
3952.573512	0.097405	0.177752	10032.540039
3952.574387	0.097427	0.177752	10117.788086
3952.575297	0.097471	0.177752	10206.486328
3952.576389	0.097365	0.177752	10312.808594
3953.615388	1.084226	0.163987	555.123718
3953.616423	1.486322	0.163987	2093.467041
3953.617321	1.469095	0.163987	3412.714844
3953.618291	1.432353	0.163987	4802.097656
3953.619348	1.391239	0.163987	6272.637207
3953.620276	1.357200	0.163987	7532.118652
3953.621147	1.325427	0.163987	8686.565430
3953.622208	0.603625	0.163987	9327.011719
3953.623211	0.099199	0.163987	9426.508789
3953.624101	0.097357	0.163987	9513.156250
3953.625099	0.097467	0.163987	9610.428711
3953.626134	0.097515	0.163987	9711.356445
3953.627032	0.097375	0.163987	9798.799805
3953.627887	0.097430	0.163987	9882.102539
3953.629004	0.097474	0.163987	9990.981445
3953.629972	0.097452	0.163987	10085.315430
3953.630841	0.097441	0.163987	10169.992187
3953.631858	0.097592	0.163987	10269.243164
3954.625577	1.089338	0.182151	565.366638
3954.626546	1.485568	0.182151	2004.881836
3954.627419	1.471956	0.182151	3289.898926
3954.628424	1.433221	0.182151	4730.286621
3954.629500	1.393293	0.182151	6229.470703
3954.630381	1.359364	0.182151	7427.070312
3954.631274	1.326555	0.182151	8611.683594
3954.632388	0.603424	0.182151	9283.898437
3954.633339	0.100042	0.182151	9379.038086
3954.634210	0.097361	0.182151	9463.839844
3954.635239	0.097566	0.182151	9564.235352
3954.636281	0.097379	0.182151	9665.704102
3954.637170	0.097365	0.182151	9752.260742
3954.638108	0.097493	0.182151	9843.708984
3954.639163	0.097515	0.182151	9946.586914
3954.640103	0.097379	0.182151	10038.123047
3954.640965	0.097485	0.182151	10122.155273
3954.642032	0.097661	0.182151	10226.359375
3955.688226	1.085695	0.173031	575.418091
3955.689284	1.486377	0.173031	2148.004883
3955.690194	1.467404	0.173031	3483.342285
3955.691061	1.432317	0.173031	4725.161133
3955.692177	1.390789	0.173031	6277.281250
3955.693151	1.355262	0.173031	7597.306641
3955.694017	1.325186	0.173031	8744.916992
3955.695106	0.531811	0.173031	9324.059570
3955.696131	0.098357	0.173031	9424.875000
3955.697023	0.097430	0.173031	9511.783203
3955.697946	0.097456	0.173031	9601.735352
3955.699012	0.097449	0.173031	9705.615234
3955.699942	0.097350	0.173031	9796.150391
3955.700802	0.097350	0.173031	9879.871094
3955.701856	0.097511	0.173031	9982.647461
3955.702881	0.097449	0.173031	10082.532227
3955.703754	0.097463	0.173031	10167.618164
3955.704697	0.097526	0.173031	10259.584961
3956.692733	1.060653	0.180628	514.416748
3956.693621	1.480880	0.180628	1829.438354
3956.694575	1.473420	0.180628	3235.081543
3956.695640	1.432837	0.180628	4761.052734
3956.696571	1.396670	0.180628	6061.352539
3956.697435	1.363960	0.180628	7239.813965
3956.698506	1.326888	0.180628	8660.911133
3956.699536	0.651962	0.180628	9332.431641
3956.700413	0.103586	0.180628	9423.277344
3956.701412	0.097493	0.180628	9520.672852
3956.702451	0.097537	0.180628	9622.013672
3956.703353	0.097423	0.180628	9709.889648
3956.704212	0.097522	0.180628	9793.661133
3956.705274	0.097562	0.180628	9897.272461
3956.706278	0.097375	0.180628	9995.037109
3956.707178	0.097397	0.180628	10082.694336
3956.708159	0.097559	0.180628	10178.399414
3956.709210	0.097511	0.180628	10280.883789
3957.757375	0.999023	0.171440	425.584015
3957.758354	1.476313	0.171440	1870.894897
3957.759381	1.469344	0.171440	3379.911621
3957.760285	1.434825	0.171440	4676.993652
3957.761158	1.400687	0.171440	5899.793457
3957.762228	1.361408	0.171440	7356.499512
3957.763171	1.328020	0.171440	8608.822266
3957.764059	0.890760	0.171440	9399.817383
3957.765030	0.119938	0.171440	9516.277344
3957.766049	0.097408	0.171440	9615.536133
3957.766934	0.097368	0.171440	9701.707031
3957.767794	0.097412	0.171440	9785.481445
3957.768871	0.097460	0.171440	9890.445312
3957.769808	0.097401	0.171440	9981.709961
3957.770670	0.097375	0.171440	10065.647461
3957.771743	0.097570	0.171440	10170.339844
3957.772753	0.097397	0.171440	10268.710937
3957.773628	0.097449	0.171440	10353.978516
3958.760892	0.996075	0.178695	423.332062
3958.761809	1.474885	0.178695	1775.801880
3958.762807	1.473073	0.178695	3245.928223
3958.763728	1.437671	0.178695	4570.022949
3958.764627	1.402932	0.178695	5831.258789
3958.765664	1.365363	0.178695	7247.139648
3958.766566	1.331803	0.178695	8448.425781
3958.767504	0.979259	0.178695	9366.970703
3958.768367	0.136509	0.178695	9484.777344
3958.769419	0.097361	0.178695	9587.201172
3958.770296	0.097379	0.178695	9672.602539
3958.771166	0.097507	0.178695	9757.433594
3958.772166	0.097434	0.178695	9854.867187
3958.773095	0.097419	0.178695	9945.370117
3958.773972	0.097434	0.178695	10030.819336
3958.774937	0.097614	0.178695	10125.016602
3958.775949	0.097434	0.178695	10223.620117
3958.776836	0.097449	0.178695	10310.057617
3959.829219	1.040892	0.171331	480.892212
3959.830102	1.479009	0.171331	1786.856934
3959.831080	1.473563	0.171331	3228.001953
3959.832154	1.432987	0.171331	4767.029785
3959.833075	1.396791	0.171331	6053.474121
3959.833943	1.363290	0.171331	7236.809570
3959.835052	1.325519	0.171331	8706.809570
3959.836020	0.682932	0.171331	9367.887695
3959.836899	0.104806	0.171331	9460.011719
3959.837927	0.097500	0.171331	9560.242187
3959.838968	0.097412	0.171331	9661.648437
3959.839850	0.097405	0.171331	9747.559570
3959.840730	0.097456	0.171331	9833.321289
3959.841824	0.097551	0.171331	9940.041992
3959.842776	0.097416	0.171331	10032.782227
3959.843632	0.097350	0.171331	10116.113281
3959.844673	0.097570	0.171331	10217.683594
3959.845722	0.097485	0.171331	10319.945312
3960.828706	1.080406	0.181748	556.409302
3960.829613	1.483396	0.181748	1901.849365
3960.830481	1.473149	0.181748	3180.542969
3960.831578	1.432687	0.181748	4752.200195
3960.832576	1.393799	0.181748	6143.211426
3960.833463	1.361517	0.181748	7350.877441
3960.834484	1.326002	0.181748	8704.725586
3960.835535	0.603735	0.181748	9339.250977
3960.836420	0.101276	0.181748	9428.879883
3960.837292	0.097354	0.181748	9513.772461
3960.838395	0.097526	0.181748	9621.342773
3960.839342	0.097460	0.181748	9713.636719
3960.840199	0.097383	0.181748	9797.093750
3960.841215	0.097441	0.181748	9896.093750
3960.842261	0.097427	0.181748	9998.001953
3960.843147	0.097423	0.181748	10084.318359
3960.844075	0.097460	0.181748	10174.760742
3960.845143	0.097467	0.181748	10278.855469
3961.897795	1.123092	0.169478	621.069885
3961.898842	1.486575	0.169478	2177.513672
3961.899728	1.467590	0.169478	3477.798828
3961.900659	1.431299	0.169478	4810.337891
3961.901729	1.390613	0.169478	6298.293457
3961.902670	1.356244	0.169478	7574.519043
3961.903533	1.325248	0.169478	8718.208008
3961.904602	0.590109	0.169478	9349.034180
3961.905621	0.098928	0.169478	9449.841797
3961.906496	0.097390	0.169478	9535.058594
3961.907465	0.097496	0.169478	9629.532227
3961.908513	0.097427	0.169478	9731.635742
3961.909433	0.097405	0.169478	9821.248047
3961.910350	0.097383	0.169478	9910.547852
3961.911227	0.097456	0.169478	9996.016602
3961.912276	0.097478	0.169478	10098.271484
3961.913171	0.097401	0.169478	10185.445312
3961.914048	0.097379	0.169478	10270.846680
3962.896582	1.008164	0.180177	437.543182
3962.897591	1.479108	0.180177	1929.962891
3962.898667	1.467133	0.180177	3508.597656
3962.899560	1.431965	0.180177	4787.342773
3962.900455	1.396732	0.180177	6037.417969
3962.901545	1.357240	0.180177	7516.809570
3962.902500	1.323801	0.180177	8781.040039
3962.903368	0.747554	0.180177	9429.916992
3962.904410	0.102704	0.180177	9536.934570
3962.905435	0.097397	0.180177	9636.766602
3962.906318	0.097449	0.180177	9722.813477
3962.907241	0.097401	0.180177	9812.714844
3962.908311	0.097474	0.180177	9917.012695
3962.909259	0.097350	0.180177	10009.300781
3962.910127	0.097438	0.180177	10093.876953
3962.911169	0.097533	0.180177	10195.505859
3962.912196	0.097401	0.180177	10295.537109
3962.913083	0.097460	0.180177	10381.983398
3963.968278	1.073734	0.170622	542.235779
3963.969207	1.483696	0.170622	1920.589600
3963.970088	1.473637	0.170622	3218.863281
3963.971068	1.436755	0.170622	4626.883301
3963.972093	1.396245	0.170622	6058.034668
3963.972995	1.363048	0.170622	7287.503906
3963.973971	1.329258	0.170622	8584.859375
3963.975031	0.694197	0.170622	9320.708008
3963.975950	0.102913	0.170622	9415.285156
3963.976813	0.097449	0.170622	9499.383789
3963.977913	0.097581	0.170622	9606.722656
3963.978903	0.097368	0.170622	9703.117187
3963.979793	0.097405	0.170622	9789.807617
3963.980789	0.097540	0.170622	9886.958008
3963.981830	0.097357	0.170622	9988.306641
3963.982726	0.097412	0.170622	10075.587891
3963.983583	0.097419	0.170622	10159.076172
3963.984704	0.097518	0.170622	10268.394531
3964.964872	1.064022	0.181289	532.011108
3964.965796	1.482825	0.181289	1902.141113
3964.966726	1.472472	0.181289	3271.540039
3964.967599	1.438235	0.181289	4527.119141
3964.968656	1.398424	0.181289	6005.253418
3964.969556	1.365176	0.181289	7233.911621
3964.970442	1.333663	0.181289	8415.537109
3964.971420	0.942107	0.181289	9336.917969
3964.972374	0.122007	0.181289	9453.312500
3964.973295	0.097416	0.181289	9543.032227
3964.974159	0.097526	0.181289	9627.293945
3964.975207	0.097412	0.181289	9729.381836
3964.976084	0.097430	0.181289	9814.828125
3964.976963	0.097379	0.181289	9900.424805
3964.977857	0.097456	0.181289	9987.550781
3964.978873	0.097357	0.181289	10086.465820
3964.979749	0.097474	0.181289	10171.853516
3964.980613	0.097522	0.181289	10256.112305
3966.037002	1.041119	0.172616	526.806458
3966.038075	1.485531	0.172616	2120.781250
3966.039012	1.466188	0.172616	3494.599121
3966.039884	1.431779	0.172616	4743.109863
3966.040976	1.390741	0.172616	6261.798828
3966.041986	1.353626	0.172616	7628.960449
3966.042887	1.322205	0.172616	8820.266602
3966.043892	0.554857	0.172616	9377.898437
3966.044952	0.098536	0.172616	9482.346680
3966.045851	0.097438	0.172616	9569.943359
3966.046713	0.097463	0.172616	9653.957031
3966.047832	0.097646	0.172616	9763.223633
3966.048815	0.097482	0.172616	9859.047852
3966.049676	0.097456	0.172616	9942.957031
3966.050741	0.097515	0.172616	10046.810547
3966.051769	0.097419	0.172616	10146.958008
3966.052651	0.097522	0.172616	10232.972656
3966.053587	0.097507	0.172616	10324.239258
3967.035584	1.001085	0.181369	430.466614
3967.036457	1.475361	0.181369	1718.457031
3967.037561	1.469868	0.181369	3341.191406
3967.038569	1.431204	0.181369	4783.844727
3967.039466	1.396428	0.181369	6036.440918
3967.040466	1.360613	0.181369	7397.053711
3967.041517	1.323387	0.181369	8787.933594
3967.042427	0.676805	0.181369	9403.826172
3967.043288	0.105037	0.181369	9494.262695
3967.044397	0.097354	0.181369	9602.227539
3967.045369	0.097317	0.181369	9696.819336
3967.046234	0.097430	0.181369	9781.096680
3967.047273	0.097544	0.181369	9882.445312
3967.048320	0.097321	0.181369	9984.339844
3967.049198	0.097416	0.181369	10069.871094
3967.050113	0.097540	0.181369	10159.120117
3967.051175	0.097518	0.181369	10262.684570
3967.052117	0.097394	0.181369	10354.429687
3968.106764	1.042888	0.171496	529.787170
3968.107836	1.485542	0.171496	2122.288086
3968.108777	1.466221	0.171496	3502.001953
3968.109652	1.431632	0.171496	4754.679687
3968.110730	1.391301	0.171496	6254.502441
3968.111742	1.354142	0.171496	7624.894043
3968.112639	1.322230	0.171496	8810.934570
3968.113623	0.577152	0.171496	9378.852539
3968.114689	0.098741	0.171496	9484.111328
3968.115595	0.097427	0.171496	9572.379883
3968.116456	0.097504	0.171496	9656.330078
3968.117568	0.097496	0.171496	9764.746094
3968.118532	0.097397	0.171496	9858.637695
3968.119409	0.097474	0.171496	9944.123047
3968.120440	0.097551	0.171496	10044.698242
3968.121477	0.097496	0.171496	10145.801758
3968.122359	0.097438	0.171496	10231.742187
3968.123232	0.097460	0.171496	10316.824219
3969.104406	1.071482	0.183126	550.741699
3969.105331	1.483597	0.183126	1923.069336
3969.106199	1.473102	0.183126	3201.721680
3969.107285	1.432273	0.183126	4757.169922
3969.108297	1.392869	0.183126	6166.752930
3969.109196	1.360151	0.183126	7389.528809
3969.110172	1.326083	0.183126	8683.785156
3969.111240	0.597418	0.183126	9321.828125
3969.112152	0.100430	0.183126	9413.419922
3969.113013	0.097390	0.183126	9497.272461
3969.114111	0.097515	0.183126	9604.343750
3969.115088	0.097412	0.183126	9699.515625
3969.115971	0.097416	0.183126	9785.534180
3969.116981	0.097603	0.183126	9884.112305
3969.118034	0.097467	0.183126	9986.745117
3969.118912	0.097427	0.183126	10072.286133
3969.119780	0.097515	0.183126	10156.928711
3969.120895	0.097522	0.183126	10265.666016
3970.174940	1.029716	0.175250	457.193695
3970.175823	1.477793	0.175250	1762.084839
3970.176695	1.477332	0.175250	3050.317871
3970.177698	1.439894	0.175250	4494.531250
3970.178628	1.403167	0.175250	5799.476074
3970.179554	1.369801	0.175250	7067.912109
3970.180428	1.336714	0.175250	8236.200195
3970.181479	1.024764	0.175250	9313.227539
3970.182371	0.141379	0.175250	9439.337891
3970.183249	0.097332	0.175250	9524.794922
3970.184223	0.097540	0.175250	9619.798828
3970.185168	0.097408	0.175250	9711.849609
3970.186044	0.097471	0.175250	9797.234375
3970.186994	0.097500	0.175250	9889.859375
3970.188040	0.097463	0.175250	9991.805664
3970.188929	0.097467	0.175250	10078.454102
3970.189785	0.097496	0.175250	10161.911133
3970.190810	0.097614	0.175250	10261.964844
3971.174646	1.054204	0.184201	510.234802
3971.175521	1.479558	0.184201	1804.848145
3971.176494	1.473223	0.184201	3238.293701
3971.177557	1.432866	0.184201	4761.430664
3971.178488	1.396417	0.184201	6061.495117
3971.179356	1.363418	0.184201	7244.941895
3971.180422	1.326207	0.184201	8658.678711
3971.181434	0.668038	0.184201	9334.733398
3971.182319	0.103905	0.184201	9426.689453
3971.183310	0.097427	0.184201	9523.239258
3971.184359	0.097478	0.184201	9625.494141
3971.185275	0.097332	0.184201	9714.649414
3971.186136	0.097321	0.184201	9798.442383
3971.187239	0.097551	0.184201	9906.041016
3971.188205	0.097441	0.184201	10000.168945
3971.189092	0.097354	0.184201	10086.521484
3971.190097	0.097537	0.184201	10184.545898
3971.191155	0.097419	0.184201	10287.615234
3972.243124	1.004579	0.173647	420.918518
3972.244224	1.484465	0.173647	2053.830322
3972.245147	1.469059	0.173647	3409.771484
3972.246017	1.434060	0.173647	4657.403809
3972.247117	1.393337	0.173647	6190.075195
3972.248106	1.356724	0.173647	7531.875000
3972.248999	1.325896	0.173647	8715.900391
3972.250005	0.679622	0.173647	9399.599609
3972.251066	0.100477	0.173647	9506.206055
3972.251950	0.097452	0.173647	9592.353516
3972.252835	0.097617	0.173647	9678.745117
3972.253924	0.097566	0.173647	9784.994141
3972.254880	0.097434	0.173647	9878.141602
3972.255738	0.097343	0.173647	9961.661133
3972.256759	0.097559	0.173647	10061.268555
3972.257810	0.097390	0.173647	10163.625977
3972.258684	0.097368	0.173647	10248.725586
3972.259619	0.097504	0.173647	10339.891602
3973.243584	1.002524	0.183931	429.080475
3973.244557	1.478639	0.183931	1867.796143
3973.245450	1.474230	0.183931	3184.283203
3973.246324	1.441194	0.183931	4443.886719
3973.247302	1.403573	0.183931	5816.581055
3973.248245	1.367717	0.183931	7106.338379
3973.249166	1.335568	0.183931	8336.396484
3973.250048	1.106814	0.183931	9312.606445
3973.251091	0.134231	0.183931	9452.609375
3973.251991	0.097317	0.183931	9540.194336
3973.252865	0.097463	0.183931	9625.376953
3973.253798	0.097551	0.183931	9716.392578
3973.254794	0.097397	0.183931	9813.400391
3973.255723	0.097452	0.183931	9903.933594
3973.256587	0.097386	0.183931	9988.075195
3973.257633	0.097427	0.183931	10089.983398
3973.258512	0.097379	0.183931	10175.580078
3973.259369	0.097474	0.183931	10259.115234
3974.311873	1.004385	0.175407	430.881073
3974.312821	1.475475	0.175407	1829.631226
3974.313878	1.469568	0.175407	3382.964355
3974.314814	1.433555	0.175407	4724.771484
3974.315681	1.398995	0.175407	5937.700195
3974.316758	1.360104	0.175407	7402.531738
3974.317773	1.323904	0.175407	8746.293945
3974.318660	0.752531	0.175407	9413.788086
3974.319650	0.107875	0.175407	9520.583984
3974.320683	0.097357	0.175407	9621.154297
3974.321593	0.097386	0.175407	9709.776367
3974.322453	0.097515	0.175407	9793.638672
3974.323542	0.097500	0.175407	9899.816406
3974.324552	0.097346	0.175407	9998.135742
3974.325425	0.097405	0.175407	10083.169922
3974.326412	0.097650	0.175407	10179.550781
3974.327450	0.097489	0.175407	10280.744141
3974.328345	0.097570	0.175407	10368.069336
3975.314399	1.036271	0.187545	467.358093
3975.315281	1.477859	0.187545	1770.829590
3975.316144	1.476064	0.187545	3044.673340
3975.317254	1.436118	0.187545	4638.764648
3975.318164	1.400090	0.187545	5912.846680
3975.319041	1.368029	0.187545	7112.607422
3975.320034	1.332396	0.187545	8435.676758
3975.321048	0.876998	0.187545	9324.953125
3975.321939	0.117748	0.187545	9429.866211
3975.322927	0.097595	0.187545	9526.290039
3975.323974	0.097515	0.187545	9628.387695
3975.324877	0.097515	0.187545	9716.443359
3975.325738	0.097522	0.187545	9800.410156
3975.326854	0.097577	0.187545	9909.305664
3975.327824	0.097379	0.187545	10003.763672
3975.328686	0.097452	0.187545	10087.767578
3975.329817	0.097562	0.187545	10198.110352
3975.330843	0.097452	0.187545	10298.096680
3976.380428	1.067651	0.175979	541.299255
3976.381340	1.482466	0.175979	1893.308105
3976.382203	1.473655	0.175979	3165.072266
3976.383280	1.433013	0.175979	4708.426758
3976.384282	1.394656	0.175979	6105.872070
3976.385175	1.361840	0.175979	7321.994629
3976.386170	1.327006	0.175979	8642.365234
3976.387230	0.642133	0.175979	9323.025391
3976.388137	0.101393	0.175979	9414.988281
3976.388998	0.097515	0.175979	9498.948242
3976.390110	0.097427	0.175979	9607.287109
3976.391076	0.097489	0.175979	9701.461914
3976.391941	0.097423	0.175979	9785.732422
3976.393006	0.097526	0.175979	9889.597656
3976.394059	0.097412	0.175979	9992.172852
3976.394949	0.097496	0.175979	10078.944336
3976.395861	0.097522	0.175979	10167.884766
3976.396948	0.097544	0.175979	10273.915039
3977.385405	1.002301	0.186344	423.973328
3977.386460	1.482733	0.186344	1988.256836
3977.387462	1.467455	0.186344	3458.646484
3977.388359	1.433027	0.186344	4744.072266
3977.389348	1.395432	0.186344	6124.154785
3977.390386	1.356654	0.186344	7532.361816
3977.391299	1.324373	0.186344	8741.513672
3977.392171	0.760078	0.186344	9404.301758
3977.393271	0.101825	0.186344	9516.309570
3977.394255	0.097346	0.186344	9612.098633
3977.395129	0.097405	0.186344	9697.230469
3977.396138	0.097584	0.186344	9795.693359
3977.397189	0.097456	0.186344	9898.120117
3977.398058	0.097390	0.186344	9982.751953
3977.398927	0.097460	0.186344	10067.444336
3977.400047	0.097507	0.186344	10176.652344
3977.401015	0.097449	0.186344	10270.982422
3977.401886	0.097500	0.186344	10355.905273
3978.445866	1.072573	0.180229	573.826660
3978.446933	1.486110	0.180229	2159.505615
3978.447852	1.466074	0.180229	3506.827881
3978.448723	1.430881	0.180229	4753.125488
3978.449830	1.389708	0.180229	6291.532227
3978.450813	1.353010	0.180229	7621.541504
3978.451738	1.320487	0.180229	8842.992187
3978.452626	0.645542	0.180229	9416.233398
3978.453650	0.101660	0.180229	9520.333008
3978.454575	0.097390	0.180229	9610.418945
3978.455503	0.097405	0.180229	9700.810547
3978.456368	0.097441	0.180229	9785.097656
3978.457409	0.097463	0.180229	9886.556641
3978.458289	0.097423	0.180229	9972.289062
3978.459156	0.097489	0.180229	10056.812500
3978.460144	0.097507	0.180229	10153.149414
3978.461072	0.097452	0.180229	10243.584961
3978.461989	0.097471	0.180229	10332.965820
3979.456278	1.073170	0.187017	540.877747
3979.457284	1.485711	0.187017	2035.502441
3979.458185	1.469806	0.187017	3359.797363
3979.459182	1.432108	0.187017	4787.609375
3979.460245	1.391136	0.187017	6266.387207
3979.461147	1.357753	0.187017	7491.080078
3979.462014	1.325460	0.187017	8640.253906
3979.463106	0.607189	0.187017	9303.303711
3979.464068	0.099814	0.187017	9399.325195
3979.464998	0.097427	0.187017	9489.931641
3979.465876	0.097456	0.187017	9575.498047
3979.466888	0.097540	0.187017	9674.208984
3979.467785	0.097449	0.187017	9761.620117
3979.468706	0.097416	0.187017	9851.339844
3979.469571	0.097438	0.187017	9935.623047
3979.470618	0.097540	0.187017	10037.748047
3979.471506	0.097500	0.187017	10124.328125
3979.472382	0.097599	0.187017	10209.825195
3980.513067	1.079813	0.179488	552.864380
3980.514031	1.484513	0.179488	1983.934814
3980.514902	1.472124	0.179488	3266.154785
3980.515955	1.432006	0.179488	4774.056641
3980.516995	1.392235	0.179488	6221.981445
3980.517878	1.358932	0.179488	7421.918457
3980.518822	1.326145	0.179488	8673.799805
3980.519890	0.595488	0.179488	9309.781250
3980.520827	0.100250	0.179488	9403.715820
3980.521692	0.097482	0.179488	9488.037109
3980.522730	0.097661	0.179488	9589.409180
3980.523752	0.097496	0.179488	9689.050781
3980.524643	0.097441	0.179488	9775.871094
3980.525608	0.097573	0.179488	9870.029297
3980.526657	0.097441	0.179488	9972.245117
3980.527578	0.097438	0.179488	10061.985352
3980.528440	0.097419	0.179488	10145.960937
3980.529530	0.097584	0.179488	10252.328125
3981.526557	1.080502	0.186429	552.136353
3981.527467	1.483121	0.186429	1901.776855
3981.528344	1.472834	0.186429	3193.452637
3981.529426	1.432383	0.186429	4743.291016
3981.530428	1.393934	0.186429	6140.013184
3981.531330	1.360697	0.186429	7367.361816
3981.532312	1.326101	0.186429	8669.592773
3981.533371	0.616586	0.186429	9322.556641
3981.534275	0.101049	0.186429	9413.904297
3981.535139	0.097463	0.186429	9498.112305
3981.536252	0.097555	0.186429	9606.691406
3981.537220	0.097489	0.186429	9701.060547
3981.538098	0.097449	0.186429	9786.620117
3981.539119	0.097474	0.186429	9886.141602
3981.540160	0.097456	0.186429	9987.593750
3981.541036	0.097423	0.186429	10072.936523
3981.541928	0.097559	0.186429	10159.958984
3981.543017	0.097548	0.186429	10266.188477
3982.580927	0.991996	0.180362	422.590240
3982.581828	1.474296	0.180362	1750.930542
3982.582952	1.468722	0.180362	3401.773926
3982.583904	1.432203	0.180362	4765.231445
3982.584765	1.397926	0.180362	5968.845703
3982.585804	1.359525	0.180362	7381.392578
3982.586840	1.323340	0.180362	8752.373047
3982.587741	0.718099	0.180362	9399.380859
3982.588700	0.106403	0.180362	9501.420898
3982.589759	0.097434	0.180362	9604.603516
3982.590682	0.097430	0.180362	9694.532227
3982.591551	0.097485	0.180362	9779.247070
3982.592633	0.097720	0.180362	9884.979492
3982.593633	0.097397	0.180362	9982.376953
3982.594521	0.097335	0.180362	10068.810547
3982.595498	0.097500	0.180362	10164.068359
3982.596551	0.097452	0.180362	10266.685547
3982.597465	0.097397	0.180362	10355.707031
3983.598014	0.998101	0.185398	424.192749
3983.599067	1.481781	0.185398	1984.508179
3983.600091	1.466719	0.185398	3486.428223
3983.600978	1.432313	0.185398	4756.890137
3983.601966	1.395070	0.185398	6135.218750
3983.603019	1.355925	0.185398	7563.007812
3983.603944	1.322893	0.185398	8786.683594
3983.604809	0.729247	0.185398	9417.482422
3983.605893	0.101499	0.185398	9527.507812
3983.606888	0.097379	0.185398	9624.400391
3983.607760	0.097460	0.185398	9709.385742
3983.608755	0.097405	0.185398	9806.303711
3983.609827	0.097390	0.185398	9910.706055
3983.610726	0.097445	0.185398	9998.309570
3983.611592	0.097507	0.185398	10082.750977
3983.612711	0.097452	0.185398	10191.799805
3983.613693	0.097401	0.185398	10287.447266
3983.614559	0.097394	0.185398	10371.790039
3984.648770	1.123861	0.180733	631.609924
3984.649834	1.486454	0.180733	2213.196777
3984.650729	1.465942	0.180733	3525.215332
3984.651650	1.430607	0.180733	4842.804199
3984.652538	1.395916	0.180733	6082.376953
3984.653508	1.359954	0.180733	7401.531738
3984.654438	1.327493	0.180733	8636.099609
3984.655328	0.878771	0.180733	9418.205078
3984.656348	0.115851	0.180733	9536.373047
3984.657271	0.097441	0.180733	9626.311523
3984.658194	0.097504	0.180733	9716.307617
3984.659052	0.097526	0.180733	9799.984375
3984.660098	0.097438	0.180733	9901.904297
3984.660980	0.097368	0.180733	9987.783203
3984.661850	0.097452	0.180733	10072.566406
3984.662837	0.097445	0.180733	10168.745117
3984.663773	0.097507	0.180733	10260.011719
3984.664687	0.097493	0.180733	10349.120117
3985.668042	1.012614	0.181430	439.474274
3985.668905	1.474947	0.181430	1712.353882
3985.669993	1.470985	0.181430	3312.785645
3985.670877	1.436935	0.181430	4583.036133
3985.671751	1.403108	0.181430	5809.352539
3985.672760	1.366838	0.181430	7188.492187
3985.673675	1.333008	0.181430	8408.194336
3985.674595	1.017656	0.181430	9344.438477
3985.675474	0.144126	0.181430	9471.125000
3985.676507	0.097361	0.181430	9571.699219
3985.677400	0.097478	0.181430	9658.747070
3985.678277	0.097438	0.181430	9744.200195
3985.679224	0.097460	0.181430	9836.494141
3985.680212	0.097361	0.181430	9932.686523
3985.681085	0.097441	0.181430	10017.752930
3985.681966	0.097485	0.181430	10103.637695
3985.683054	0.097445	0.181430	10209.658203
3985.683938	0.097507	0.181430	10295.854492
3986.718530	1.118474	0.178699	627.463989
3986.719589	1.486073	0.178699	2201.215332
3986.720485	1.465858	0.178699	3514.624023
3986.721382	1.430094	0.178699	4797.418457
3986.722499	1.388240	0.178699	6348.082031
3986.723459	1.353442	0.178699	7647.386719
3986.724330	1.322750	0.178699	8799.501953
3986.725390	0.508960	0.178699	9339.000000
3986.726415	0.098243	0.178699	9439.699219
3986.727303	0.097408	0.178699	9526.198242
3986.728264	0.097548	0.178699	9619.941406
3986.729309	0.097559	0.178699	9721.890625
3986.730235	0.097441	0.178699	9812.121094
3986.731097	0.097401	0.178699	9896.081055
3986.732170	0.097650	0.178699	10000.859375
3986.733181	0.097471	0.178699	10099.402344
3986.734063	0.097430	0.178699	10185.335937
3986.735058	0.097500	0.178699	10282.348633
3987.734457	1.007230	0.182965	424.043884
3987.735578	1.483312	0.182965	2086.836426
3987.736586	1.464697	0.182965	3563.251221
3987.737469	1.430475	0.182965	4826.360352
3987.738472	1.391898	0.182965	6222.434082
3987.739522	1.353644	0.182965	7643.759766
3987.740420	1.321633	0.182965	8830.586914
3987.741341	0.646373	0.182965	9425.896484
3987.742423	0.099291	0.182965	9533.329102
3987.743370	0.097452	0.182965	9625.616211
3987.744239	0.097412	0.182965	9710.267578
3987.745270	0.097559	0.182965	9810.850586
3987.746288	0.097474	0.182965	9910.079102
3987.747177	0.097526	0.182965	9996.779297
3987.748123	0.097606	0.182965	10089.115234
3987.749186	0.097544	0.182965	10192.804687
3987.750123	0.097485	0.182965	10284.148437
3987.750986	0.097474	0.182965	10368.268555
3988.789267	1.069937	0.176918	546.737549
3988.790174	1.482605	0.176918	1891.460205
3988.791041	1.472809	0.176918	3168.385498
3988.792155	1.432130	0.176918	4763.778320
3988.793131	1.394231	0.176918	6124.547852
3988.794017	1.361862	0.176918	7331.157227
3988.795049	1.325380	0.176918	8698.949219
3988.796093	0.614557	0.176918	9340.546875
3988.796974	0.101788	0.176918	9430.222656
3988.797862	0.097427	0.176918	9516.737305
3988.798949	0.097551	0.176918	9622.775391
3988.799905	0.097434	0.176918	9715.922852
3988.800767	0.097489	0.176918	9799.958008
3988.801806	0.097632	0.176918	9901.397461
3988.802845	0.097482	0.176918	10002.680664
3988.803728	0.097423	0.176918	10088.705078
3988.804652	0.097529	0.176918	10178.822266
3988.805715	0.097515	0.176918	10282.480469
3989.801759	1.082574	0.183943	555.360718
3989.802791	1.485575	0.183943	2088.474121
3989.803682	1.468813	0.183943	3397.187012
3989.804660	1.432137	0.183943	4797.817383
3989.805709	1.390869	0.183943	6256.838867
3989.806637	1.357104	0.183943	7516.231934
3989.807500	1.325387	0.183943	8660.041016
3989.808583	0.608672	0.183943	9319.232422
3989.809594	0.099203	0.183943	9419.526367
3989.810471	0.097372	0.183943	9504.921875
3989.811444	0.097540	0.183943	9599.828125
3989.812528	0.097427	0.183943	9705.438477
3989.813414	0.097368	0.183943	9791.707031
3989.814282	0.097412	0.183943	9876.260742
3989.815380	0.097562	0.183943	9983.383789
3989.816352	0.097408	0.183943	10078.064453
3989.817236	0.097394	0.183943	10164.160156
3989.818248	0.097537	0.183943	10262.867187
3990.860727	0.996321	0.179476	418.454742
3990.861801	1.482198	0.179476	2010.335815
3990.862815	1.466371	0.179476	3497.235840
3990.863703	1.431958	0.179476	4768.814453
3990.864575	1.398483	0.179476	5988.291504
3990.865556	1.361894	0.179476	7324.310059
3990.866499	1.328287	0.179476	8576.884766
3990.867419	0.881748	0.179476	9388.092773
3990.868297	0.118649	0.179476	9492.266602
3990.869340	0.097383	0.179476	9593.836914
3990.870234	0.097427	0.179476	9680.936523
3990.871109	0.097504	0.179476	9766.251953
3990.872062	0.097478	0.179476	9859.148437
3990.873042	0.097416	0.179476	9954.616211
3990.873965	0.097500	0.179476	10044.608398
3990.874833	0.097449	0.179476	10129.194336
3990.875867	0.097419	0.179476	10229.925781
3990.876747	0.097357	0.179476	10315.599609
3991.869421	1.051058	0.186236	487.691040
3991.870298	1.478635	0.186236	1784.454224
3991.871292	1.472252	0.186236	3247.872803
3991.872376	1.431735	0.186236	4799.873047
3991.873270	1.396417	0.186236	6048.270020
3991.874140	1.362506	0.186236	7233.650391
3991.875280	1.323702	0.186236	8742.670898
3991.876241	0.655426	0.186236	9372.535156
3991.877164	0.102089	0.186236	9466.762695
3991.878044	0.097354	0.186236	9552.433594
3991.879091	0.097471	0.186236	9654.485352
3991.879987	0.097365	0.186236	9741.723633
3991.880863	0.097379	0.186236	9827.027344
3991.881739	0.097551	0.186236	9912.482422
3991.882775	0.097474	0.186236	10013.465820
3991.883654	0.097397	0.186236	10099.078125
3991.884521	0.097423	0.186236	10183.543945
3991.885528	0.097493	0.186236	10281.718750
3992.932818	1.009512	0.176918	445.194672
3992.933682	1.475636	0.176918	1720.144165
3992.934734	1.471696	0.176918	3268.367920
3992.935770	1.432434	0.176918	4752.369629
3992.936660	1.397281	0.176918	5995.950195
3992.937632	1.362221	0.176918	7320.028320
3992.938710	1.323933	0.176918	8747.228516
3992.939647	0.684426	0.176918	9388.536133
3992.940503	0.105326	0.176918	9478.695312
3992.941552	0.097566	0.176918	9581.041992
3992.942567	0.097365	0.176918	9679.867187
3992.943454	0.097416	0.176918	9766.275391
3992.944421	0.097441	0.176918	9860.500977
3992.945485	0.097562	0.176918	9964.307617
3992.946398	0.097518	0.176918	10053.341797
3992.947268	0.097522	0.176918	10138.185547
3992.948359	0.097592	0.176918	10244.658203
3992.949350	0.097460	0.176918	10341.241211
3993.936332	1.015023	0.185986	447.625244
3993.937194	1.475182	0.185986	1719.232056
3993.938273	1.470223	0.185986	3305.603027
3993.939267	1.431786	0.185986	4728.798340
3993.940161	1.397769	0.185986	5978.403320
3993.941160	1.361228	0.185986	7338.270020
3993.942226	1.324200	0.185986	8749.867187
3993.943127	0.723292	0.185986	9401.553711
3993.944020	0.107095	0.185986	9497.189453
3993.945115	0.097522	0.185986	9603.975586
3993.946077	0.097405	0.185986	9697.678711
3993.946946	0.097386	0.185986	9782.307617
3993.947978	0.097489	0.185986	9882.916016
3993.949005	0.097463	0.185986	9983.010742
3993.949900	0.097416	0.185986	10070.198242
3993.950839	0.097485	0.185986	10161.737305
3993.951907	0.097518	0.185986	10265.886719
3993.952843	0.097346	0.185986	10357.002930
3995.002566	0.998555	0.176974	434.371277
3995.003433	1.474977	0.176974	1713.176025
3995.004476	1.472421	0.176974	3248.910645
3995.005517	1.432965	0.176974	4740.627441
3995.006393	1.398146	0.176974	5965.403320
3995.007319	1.363605	0.176974	7228.101074
3995.008392	1.325885	0.176974	8650.775391
3995.009351	0.742386	0.176974	9362.723633
3995.010216	0.108098	0.176974	9456.228516
3995.011257	0.097573	0.176974	9557.802734
3995.012286	0.097394	0.176974	9658.020508
3995.013176	0.097405	0.176974	9744.710937
3995.014141	0.097456	0.176974	9838.755859
3995.015191	0.097540	0.176974	9941.172852
3995.016115	0.097441	0.176974	10031.208984
3995.016976	0.097548	0.176974	10115.197266
3995.018077	0.097559	0.176974	10222.609375
3995.019074	0.097412	0.176974	10319.729492
3996.004881	1.071068	0.187770	545.173706
3996.005829	1.483345	0.187770	1951.384399
3996.006698	1.472439	0.187770	3230.934082
3996.007719	1.433599	0.187770	4694.638184
3996.008762	1.393792	0.187770	6148.362793
3996.009655	1.360572	0.187770	7363.354004
3996.010586	1.327650	0.187770	8599.396484
3996.011670	0.653386	0.187770	9307.666992
3996.012623	0.100745	0.187770	9403.676758
3996.013485	0.097299	0.187770	9487.547852
3996.014554	0.097493	0.187770	9591.767578
3996.015558	0.097354	0.187770	9689.510742
3996.016450	0.097474	0.187770	9776.458008
3996.017435	0.097467	0.187770	9872.462891
3996.018481	0.097544	0.187770	9974.494141
3996.019392	0.097368	0.187770	10063.196289
3996.020251	0.097372	0.187770	10146.838867
3996.021333	0.097335	0.187770	10252.155273
3997.073135	1.044181	0.177784	493.897614
3997.074024	1.479463	0.177784	1809.140137
3997.074998	1.472527	0.177784	3243.381348
3997.075945	1.435876	0.177784	4603.156250
3997.076875	1.399823	0.177784	5904.991699
3997.077746	1.366937	0.177784	7095.594238
3997.078782	1.330994	0.177784	8474.503906
3997.079680	0.994438	0.177784	9367.509766
3997.080555	0.138669	0.177784	9488.845703
3997.081559	0.097394	0.177784	9586.628906
3997.082498	0.097321	0.177784	9678.012695
3997.083366	0.097284	0.177784	9762.455078
3997.084320	0.097416	0.177784	9855.389648
3997.085356	0.097434	0.177784	9956.331055
3997.086258	0.097375	0.177784	10044.164062
3997.087124	0.097324	0.177784	10128.447266
3997.088153	0.097478	0.177784	10228.751953
3997.089106	0.097354	0.177784	10321.530273
3998.073029	1.007256	0.188741	437.149078
3998.074047	1.477892	0.188741	1941.642944
3998.075102	1.467023	0.188741	3489.351807
3998.075997	1.431984	0.188741	4770.977051
3998.076862	1.396304	0.188741	5978.779785
3998.077964	1.357430	0.188741	7474.667969
3998.078937	1.323567	0.188741	8762.498047
3998.079817	0.744884	0.188741	9417.996094
3998.080851	0.102817	0.188741	9524.309570
3998.081896	0.097372	0.188741	9626.063477
3998.082781	0.097427	0.188741	9712.286133
3998.083705	0.097566	0.188741	9802.437500
3998.084771	0.097522	0.188741	9906.395508
3998.085715	0.097401	0.188741	9998.341797
3998.086587	0.097515	0.188741	10083.375000
3998.087656	0.097581	0.188741	10187.688477
3998.088662	0.097460	0.188741	10285.733398
3998.089551	0.097397	0.188741	10372.319336
3999.142598	1.002048	0.180531	435.891052
3999.143464	1.474984	0.180531	1713.227295
3999.144502	1.472248	0.180531	3241.421143
3999.145484	1.435107	0.180531	4650.696777
3999.146350	1.401489	0.180531	5864.386719
3999.147404	1.362535	0.180531	7300.499023
3999.148445	1.325782	0.180531	8680.638672
3999.149336	0.809652	0.180531	9402.039062
3999.150271	0.113093	0.180531	9507.781250
3999.151324	0.097401	0.180531	9610.344727
3999.152268	0.097467	0.180531	9702.353516
3999.153124	0.097500	0.180531	9785.813477
3999.154172	0.097526	0.180531	9888.020508
3999.155210	0.097401	0.180531	9989.123047
3999.156089	0.097430	0.180531	10074.764648
3999.157048	0.097452	0.180531	10168.221680
3999.158102	0.097471	0.180531	10270.956055
3999.159027	0.097456	0.180531	10361.102539
4000.141815	1.053607	0.190409	494.141724
4000.142695	1.478862	0.190409	1795.540527
4000.143576	1.475804	0.190409	3095.724121
4000.144559	1.439275	0.190409	4510.531250
4000.145514	1.401519	0.190409	5848.981445
4000.146445	1.367091	0.190409	7121.743164
4000.147325	1.335154	0.190409	8296.678711
4000.148385	0.963461	0.190409	9317.947266
4000.149282	0.128837	0.190409	9433.513672
4000.150143	0.097317	0.190409	9517.303711
4000.151198	0.097577	0.190409	9620.247070
4000.152143	0.097408	0.190409	9712.297852
4000.153015	0.097343	0.190409	9797.180664
4000.153960	0.097423	0.190409	9889.245117
4000.155022	0.097419	0.190409	9992.704102
4000.155899	0.097394	0.190409	10078.118164
4000.156768	0.097474	0.190409	10162.823242
4000.157786	0.097518	0.190409	10262.096680
4001.211413	1.071713	0.182622	542.286560
4001.212313	1.482056	0.182622	1876.136719
4001.213177	1.472688	0.182622	3148.539062
4001.214308	1.431691	0.182622	4767.781250
4001.215270	1.394696	0.182622	6109.478516
4001.216133	1.362620	0.182622	7285.419434
4001.217211	1.324647	0.182622	8713.388672
4001.218256	0.587501	0.182622	9327.327148
4001.219142	0.101188	0.182622	9416.979492
4001.220082	0.097416	0.182622	9508.550781
4001.221146	0.097449	0.182622	9612.236328
4001.222085	0.097386	0.182622	9703.682617
4001.222940	0.097408	0.182622	9786.966797
4001.223979	0.097467	0.182622	9888.235352
4001.224997	0.097346	0.182622	9987.333984
4001.225885	0.097412	0.182622	10073.835937
4001.226849	0.097551	0.182622	10167.875000
4001.227903	0.097412	0.182622	10270.546875
4002.210593	1.086566	0.191605	556.321838
4002.211613	1.485363	0.191605	2071.391846
4002.212512	1.468348	0.191605	3391.437012
4002.213494	1.431116	0.191605	4796.792969
4002.214558	1.389778	0.191605	6275.516602
4002.215483	1.356405	0.191605	7530.191406
4002.216351	1.324332	0.191605	8679.711914
4002.217471	0.537341	0.191605	9281.534180
4002.218450	0.098470	0.191605	9377.936523
4002.219329	0.097357	0.191605	9463.513672
4002.220335	0.097522	0.191605	9561.621094
4002.221393	0.097445	0.191605	9664.717773
4002.222284	0.097397	0.191605	9751.499023
4002.223159	0.097419	0.191605	9836.741211
4002.224249	0.097493	0.191605	9943.007812
4002.225207	0.097372	0.191605	10036.290039
4002.226070	0.097434	0.191605	10120.375977
4002.227109	0.097452	0.191605	10221.628906
4003.280644	1.066274	0.180902	527.805847
4003.281629	1.484513	0.180902	1990.051025
4003.282529	1.470399	0.180902	3313.410156
4003.283529	1.432580	0.180902	4745.990723
4003.284599	1.391737	0.180902	6235.149414
4003.285497	1.358500	0.180902	7455.082031
4003.286383	1.325544	0.180902	8629.514648
4003.287503	0.581067	0.180902	9280.309570
4003.288462	0.099496	0.180902	9375.726562
4003.289322	0.097346	0.180902	9459.444336
4003.290362	0.097533	0.180902	9560.878906
4003.291381	0.097430	0.180902	9660.160156
4003.292267	0.097434	0.180902	9746.486328
4003.293198	0.097460	0.180902	9837.221680
4003.294250	0.097566	0.180902	9939.861328
4003.295185	0.097441	0.180902	10030.968750
4003.296046	0.097526	0.180902	10114.938477
4003.297098	0.097522	0.180902	10217.531250
4004.280606	1.075796	0.192939	549.731689
4004.281578	1.484626	0.192939	1992.788574
4004.282457	1.471095	0.192939	3285.881104
4004.283473	1.432269	0.192939	4741.066406
4004.284548	1.391645	0.192939	6237.084961
4004.285437	1.358207	0.192939	7444.530762
4004.286344	1.325493	0.192939	8646.752930
4004.287452	0.571025	0.192939	9279.449219
4004.288403	0.099507	0.192939	9374.080078
4004.289265	0.097478	0.192939	9458.106445
4004.290299	0.097566	0.192939	9558.989258
4004.291323	0.097463	0.192939	9658.791992
4004.292214	0.097507	0.192939	9745.670898
4004.293147	0.097504	0.192939	9836.641602
4004.294206	0.097522	0.192939	9939.916992
4004.295142	0.097452	0.192939	10031.132812
4004.296003	0.097456	0.192939	10115.041992
4004.297088	0.097559	0.192939	10220.892578
4005.349054	0.996332	0.181889	424.437317
4005.350095	1.480510	0.181889	1965.648437
4005.351141	1.466294	0.181889	3499.391846
4005.352026	1.431526	0.181889	4766.291992
4005.352955	1.395963	0.181889	6063.141602
4005.354019	1.356870	0.181889	7506.851562
4005.354962	1.323596	0.181889	8755.002930
4005.355832	0.766901	0.181889	9422.206055
4005.356893	0.102850	0.181889	9531.330078
4005.357913	0.097405	0.181889	9630.682617
4005.358794	0.097456	0.181889	9716.541016
4005.359753	0.097533	0.181889	9810.075195
4005.360806	0.097504	0.181889	9912.746094
4005.361727	0.097540	0.181889	10002.581055
4005.362598	0.097544	0.181889	10087.541992
4005.363644	0.097698	0.181889	10189.733398
4005.364660	0.097365	0.181889	10288.655273
4005.365556	0.097518	0.181889	10376.031250
4006.349890	1.112864	0.191795	624.316589
4006.350963	1.486124	0.191795	2218.927979
4006.351862	1.465162	0.191795	3536.108887
4006.352748	1.429896	0.191795	4802.997070
4006.353848	1.388899	0.191795	6330.785645
4006.354801	1.353754	0.191795	7620.913086
4006.355663	1.323234	0.191795	8761.540039
4006.356706	0.573468	0.191795	9359.666992
4006.357747	0.098738	0.191795	9462.453125
4006.358634	0.097379	0.191795	9548.828125
4006.359581	0.097474	0.191795	9641.136719
4006.360656	0.097504	0.191795	9745.953125
4006.361587	0.097511	0.191795	9836.736328
4006.362442	0.097515	0.191795	9920.111328
4006.363485	0.097526	0.191795	10021.830078
4006.364504	0.097427	0.191795	10121.108398
4006.365399	0.097471	0.191795	10208.344727
4006.366368	0.097423	0.191795	10302.748047
4007.418557	0.993981	0.181361	421.447815
4007.419519	1.475043	0.181361	1840.438965
4007.420580	1.468293	0.181361	3398.298340
4007.421501	1.432434	0.181361	4717.570312
4007.422424	1.397252	0.181361	6007.234375
4007.423305	1.363689	0.181361	7208.644531
4007.424342	1.327683	0.181361	8585.452148
4007.425250	0.877057	0.181361	9381.820312
4007.426126	0.118250	0.181361	9485.407227
4007.427083	0.097482	0.181361	9578.697266
4007.428055	0.097548	0.181361	9673.513672
4007.428978	0.097390	0.181361	9763.404297
4007.429841	0.097423	0.181361	9847.480469
4007.430885	0.097595	0.181361	9949.370117
4007.431763	0.097493	0.181361	10034.968750
4007.432624	0.097471	0.181361	10118.890625
4007.433514	0.097581	0.181361	10205.737305
4007.434566	0.097493	0.181361	10308.299805
4008.418494	0.995826	0.192830	422.230408
4008.419455	1.474874	0.192830	1839.584473
4008.420516	1.468656	0.192830	3397.828369
4008.421442	1.432694	0.192830	4724.502930
4008.422303	1.398750	0.192830	5928.826660
4008.423384	1.359672	0.192830	7398.631836
4008.424394	1.323896	0.192830	8735.767578
4008.425285	0.757075	0.192830	9410.321289
4008.426287	0.107461	0.192830	9517.997070
4008.427333	0.097456	0.192830	9619.936523
4008.428221	0.097493	0.192830	9706.509766
4008.429087	0.097445	0.192830	9790.897461
4008.430181	0.097540	0.192830	9897.606445
4008.431149	0.097423	0.192830	9991.912109
4008.432035	0.097452	0.192830	10078.254883
4008.433043	0.097496	0.192830	10176.531250
4008.434104	0.097478	0.192830	10279.955078
4008.434995	0.097482	0.192830	10366.811523
4009.487837	1.023933	0.182006	461.793854
4009.488707	1.476471	0.182006	1746.323608
4009.489769	1.470472	0.182006	3307.965332
4009.490807	1.430845	0.182006	4793.182129
4009.491698	1.396271	0.182006	6037.259277
4009.492663	1.361477	0.182006	7351.084473
4009.493708	1.323900	0.182006	8734.560547
4009.494652	0.684221	0.182006	9380.464844
4009.495510	0.105374	0.182006	9470.875000
4009.496589	0.097493	0.182006	9576.069336
4009.497602	0.097328	0.182006	9674.662109
4009.498477	0.097383	0.182006	9759.872070
4009.499450	0.097529	0.182006	9854.768555
4009.500515	0.097419	0.182006	9958.520508
4009.501414	0.097383	0.182006	10046.067383
4009.502275	0.097449	0.182006	10129.970703
4009.503376	0.097434	0.182006	10237.246094
4009.504365	0.097401	0.182006	10333.576172
4010.487068	1.076470	0.193015	547.923096
4010.487978	1.482279	0.193015	1896.796997
4010.488860	1.473329	0.193015	3196.272949
4010.489859	1.435723	0.193015	4630.560059
4010.490860	1.396410	0.193015	6028.366211
4010.491754	1.363345	0.193015	7247.196289
4010.492620	1.331367	0.193015	8400.160156
4010.493735	0.790825	0.193015	9281.930664
4010.494650	0.107523	0.193015	9380.314453
4010.495524	0.097354	0.193015	9465.401367
4010.496524	0.097474	0.193015	9562.875977
4010.497512	0.097390	0.193015	9659.097656
4010.498401	0.097456	0.193015	9745.736328
4010.499261	0.097441	0.193015	9829.536133
4010.500360	0.097434	0.193015	9936.616211
4010.501275	0.097339	0.193015	10025.681641
4010.502131	0.097416	0.193015	10109.069336
4010.503203	0.097544	0.193015	10213.636719
4011.557587	1.009017	0.183541	441.949585
4011.558456	1.475647	0.183541	1724.286743
4011.559506	1.471311	0.183541	3269.163330
4011.560553	1.431694	0.183541	4768.147461
4011.561447	1.396589	0.183541	6016.698242
4011.562403	1.361565	0.183541	7318.354492
4011.563473	1.323816	0.183541	8734.837891
4011.564407	0.692834	0.183541	9381.945312
4011.565263	0.105725	0.183541	9472.446289
4011.566313	0.097408	0.183541	9574.725586
4011.567330	0.097463	0.183541	9673.845703
4011.568216	0.097343	0.183541	9760.090820
4011.569187	0.097456	0.183541	9854.720703
4011.570241	0.097485	0.183541	9957.470703
4011.571157	0.097368	0.183541	10046.660156
4011.572024	0.097456	0.183541	10131.154297
4011.573099	0.097471	0.183541	10235.935547
4011.574096	0.097328	0.183541	10332.971680
4012.556540	1.053845	0.195086	513.222656
4012.557495	1.482953	0.195086	1929.442627
4012.558367	1.472897	0.195086	3213.808594
4012.559430	1.432793	0.195086	4736.867187
4012.560458	1.392887	0.195086	6168.754883
4012.561360	1.359485	0.195086	7395.010254
4012.562307	1.326321	0.195086	8651.036133
4012.563385	0.610565	0.195086	9309.225586
4012.564315	0.100671	0.195086	9402.849609
4012.565171	0.097350	0.195086	9486.180664
4012.566236	0.097551	0.195086	9590.073242
4012.567245	0.097386	0.195086	9688.335937
4012.568123	0.097493	0.195086	9773.934570
4012.569109	0.097562	0.195086	9870.130859
4012.570163	0.097584	0.195086	9972.984375
4012.571069	0.097441	0.195086	10061.266602
4012.571926	0.097460	0.195086	10144.790039
4012.572977	0.097588	0.195086	10247.354492
4013.625812	1.018396	0.184407	461.333405
4013.626915	1.484615	0.184407	2098.864258
4013.627817	1.467989	0.184407	3422.990723
4013.628692	1.434089	0.184407	4677.818848
4013.629749	1.393535	0.184407	6150.785645
4013.630721	1.357365	0.184407	7470.144043
4013.631602	1.327152	0.184407	8639.365234
4013.632514	0.803390	0.184407	9372.056641
4013.633604	0.102773	0.184407	9484.080078
4013.634483	0.097445	0.184407	9569.734375
4013.635361	0.097584	0.184407	9655.413086
4013.636482	0.097526	0.184407	9764.739258
4013.637430	0.097430	0.184407	9857.103516
4013.638289	0.097368	0.184407	9940.743164
4013.639348	0.097533	0.184407	10044.030273
4013.640380	0.097478	0.184407	10144.627930
4013.641262	0.097526	0.184407	10230.645508
4013.642195	0.097456	0.184407	10321.572266
4014.626632	1.122792	0.195851	638.868530
4014.627567	1.484777	0.195851	2027.134644
4014.628500	1.468887	0.195851	3397.605957
4014.629365	1.434155	0.195851	4638.150391
4014.630420	1.394832	0.195851	6109.697754
4014.631313	1.361686	0.195851	7325.683105
4014.632189	1.329225	0.195851	8490.083984
4014.633299	0.731030	0.195851	9301.527344
4014.634203	0.105125	0.195851	9396.559570
4014.635071	0.097310	0.195851	9481.024414
4014.636074	0.097394	0.195851	9578.709961
4014.637078	0.097343	0.195851	9676.441406
4014.637958	0.097361	0.195851	9762.119141
4014.638814	0.097379	0.195851	9845.475586
4014.639863	0.097445	0.195851	9947.695312
4014.640791	0.097427	0.195851	10038.107422
4014.641667	0.097401	0.195851	10123.430664
4014.642645	0.097452	0.195851	10218.739258
4015.694027	1.004385	0.183557	440.924896
4015.694897	1.475295	0.183557	1724.432007
4015.695958	1.470688	0.183557	3284.832520
4015.696971	1.431519	0.183557	4734.960937
4015.697870	1.397509	0.183557	5991.321289
4015.698863	1.361565	0.183557	7343.355469
4015.699922	1.323607	0.183557	8745.055664
4015.700834	0.711636	0.183557	9394.067383
4015.701694	0.106729	0.183557	9485.853516
4015.702806	0.097438	0.183557	9594.204102
4015.703774	0.097423	0.183557	9688.509766
4015.704652	0.097482	0.183557	9774.098633
4015.705653	0.097606	0.183557	9871.802734
4015.706706	0.097562	0.183557	9974.536133
4015.707599	0.097375	0.183557	10061.492187
4015.708461	0.097471	0.183557	10145.511719
4015.709566	0.097515	0.183557	10253.265625
4015.710525	0.097401	0.183557	10346.672852
4016.697042	1.015052	0.194022	453.728455
4016.697909	1.475695	0.194022	1733.155762
4016.698947	1.471813	0.194022	3260.897461
4016.699983	1.432837	0.194022	4745.316406
4016.700869	1.397988	0.194022	5983.934082
4016.701778	1.363598	0.194022	7223.444336
4016.702864	1.325801	0.194022	8663.263672
4016.703823	0.746455	0.194022	9379.114258
4016.704681	0.108270	0.194022	9472.009766
4016.705726	0.097401	0.194022	9573.793945
4016.706749	0.097390	0.194022	9673.423828
4016.707635	0.097441	0.194022	9759.756836
4016.708592	0.097456	0.194022	9853.022461
4016.709643	0.097551	0.194022	9955.548828
4016.710582	0.097478	0.194022	10047.081055
4016.711455	0.097445	0.194022	10132.150391
4016.712518	0.097581	0.194022	10235.878906
4016.713517	0.097394	0.194022	10333.175781
4017.762492	1.025200	0.182461	436.735291
4017.763548	1.484597	0.182461	2004.469971
4017.764486	1.469007	0.182461	3382.398926
4017.765377	1.435082	0.182461	4661.056641
4017.766401	1.396263	0.182461	6090.830078
4017.767320	1.361598	0.182461	7342.138672
4017.768248	1.328383	0.182461	8574.877930
4017.769119	0.912502	0.182461	9369.667969
4017.770162	0.109735	0.182461	9484.122070
4017.771048	0.097332	0.182461	9570.357422
4017.771912	0.097284	0.182461	9654.411133
4017.772907	0.097390	0.182461	9751.314453
4017.773833	0.097445	0.182461	9841.548828
4017.774713	0.097463	0.182461	9927.316406
4017.775695	0.097573	0.182461	10023.133789
4017.776708	0.097423	0.182461	10121.823242
4017.777598	0.097485	0.182461	10208.584961
4017.778458	0.097405	0.182461	10292.353516
4018.766798	1.021110	0.192286	448.267120
4018.767672	1.476068	0.192286	1738.350586
4018.768695	1.472285	0.192286	3244.498291
4018.769751	1.432489	0.192286	4757.206543
4018.770639	1.397560	0.192286	5998.239746
4018.771549	1.363363	0.192286	7238.900391
4018.772435	1.331612	0.192286	8418.708984
4018.773412	0.931758	0.192286	9329.036133
4018.774332	0.121256	0.192286	9440.591797
4018.775212	0.097397	0.192286	9526.301758
4018.776193	0.097452	0.192286	9621.902344
4018.777118	0.097449	0.192286	9712.041992
4018.778033	0.097452	0.192286	9801.210937
4018.778896	0.097460	0.192286	9885.318359
4018.779944	0.097449	0.192286	9987.444336
4018.780827	0.097474	0.192286	10073.514648
4018.781689	0.097416	0.192286	10157.487305
4018.782654	0.097518	0.192286	10251.592773
4019.827641	0.990454	0.185374	416.981171
4019.828664	1.479529	0.185374	1930.539185
4019.829729	1.466462	0.185374	3492.321777
4019.830611	1.431757	0.185374	4755.130859
4019.831556	1.395465	0.185374	6073.845215
4019.832619	1.355991	0.185374	7515.263672
4019.833579	1.321989	0.185374	8784.373047
4019.834458	0.713093	0.185374	9411.181641
4019.835509	0.101272	0.185374	9517.618164
4019.836521	0.097412	0.185374	9616.199219
4019.837419	0.097467	0.185374	9703.724609
4019.838393	0.097573	0.185374	9798.760742
4019.839458	0.097610	0.185374	9902.714844
4019.840373	0.097489	0.185374	9991.916992
4019.841230	0.097452	0.185374	10075.433594
4019.842334	0.097537	0.185374	10183.114258
4019.843336	0.097471	0.185374	10280.780273
4019.844228	0.097606	0.185374	10367.844727
4020.839894	1.035765	0.190876	460.915619
4020.840781	1.477229	0.190876	1771.217773
4020.841792	1.471765	0.190876	3259.172363
4020.842848	1.432332	0.190876	4771.714355
4020.843731	1.397424	0.190876	6005.640137
4020.844614	1.363557	0.190876	7209.661133
4020.845706	1.326006	0.190876	8657.660156
4020.846673	0.744602	0.190876	9377.690430
4020.847531	0.108307	0.190876	9470.618164
4020.848561	0.097515	0.190876	9571.058594
4020.849611	0.097412	0.190876	9673.341797
4020.850484	0.097467	0.190876	9758.430664
4020.851417	0.097460	0.190876	9849.360352
4020.852485	0.097588	0.190876	9953.583984
4020.853419	0.097562	0.190876	10044.707031
4020.854289	0.097482	0.190876	10129.515625
4020.855319	0.097636	0.190876	10230.080078
4020.856346	0.097430	0.190876	10330.140625
4021.895437	1.067985	0.187754	533.992371
4021.896433	1.484725	0.187754	2012.778809
4021.897335	1.469696	0.187754	3338.444580
4021.898343	1.431182	0.187754	4781.075684
4021.899419	1.390547	0.187754	6277.304199
4021.900316	1.356691	0.187754	7494.255859
4021.901215	1.324120	0.187754	8684.639648
4021.902320	0.548101	0.187754	9290.291016
4021.903275	0.099075	0.187754	9384.907227
4021.904143	0.097372	0.187754	9469.425781
4021.905193	0.097639	0.187754	9571.947266
4021.906221	0.097383	0.187754	9672.056641
4021.907110	0.097291	0.187754	9758.548828
4021.907987	0.097365	0.187754	9843.937500
4021.908942	0.097474	0.187754	9937.025391
4021.909919	0.097427	0.187754	10032.210937
4021.910836	0.097372	0.187754	10121.500977
4021.911699	0.097434	0.187754	10205.586914
4022.910156	1.019974	0.190212	446.748779
4022.911025	1.475164	0.190212	1728.665894
4022.912162	1.467876	0.190212	3397.640869
4022.913130	1.430922	0.190212	4782.772949
4022.914005	1.397190	0.190212	6005.314453
4022.915037	1.359012	0.190212	7407.815430
4022.916082	1.322223	0.190212	8789.538086
4022.916983	0.685001	0.190212	9406.724609
4022.917918	0.105205	0.190212	9505.091797
4022.918986	0.097507	0.190212	9609.229492
4022.919922	0.097357	0.190212	9700.355469
4022.920849	0.097489	0.190212	9790.727539
4022.921719	0.097452	0.190212	9875.510742
4022.922767	0.097493	0.190212	9977.682617
4022.923645	0.097471	0.190212	10063.261719
4022.924517	0.097467	0.190212	10148.252930
4022.925456	0.097496	0.190212	10239.801758
4022.926438	0.097390	0.190212	10335.438477
4023.962648	1.072753	0.190675	538.521851
4023.963536	1.480712	0.190675	1853.393799
4023.964486	1.472033	0.190675	3251.824707
4023.965551	1.431163	0.190675	4776.013672
4023.966493	1.394799	0.190675	6089.914062
4023.967356	1.362546	0.190675	7265.791504
4023.968418	1.325497	0.190675	8673.468750
4023.969440	0.650731	0.190675	9338.515625
4023.970311	0.103206	0.190675	9428.407227
4023.971288	0.097449	0.190675	9523.614258
4023.972332	0.097493	0.190675	9625.396484
4023.973248	0.097460	0.190675	9714.669922
4023.974116	0.097427	0.190675	9799.236328
4023.975204	0.097460	0.190675	9905.272461
4023.976198	0.097397	0.190675	10002.085937
4023.977091	0.097493	0.190675	10089.146484
4023.978069	0.097595	0.190675	10184.594727
4023.979124	0.097493	0.190675	10287.449219
4024.979908	1.006066	0.192028	434.620392
4024.980775	1.474464	0.192028	1712.980835
4024.981884	1.469165	0.192028	3342.284668
4024.982871	1.432006	0.192028	4755.674316
4024.983742	1.397941	0.192028	5973.280762
4024.984809	1.358624	0.192028	7422.932617
4024.985866	1.321714	0.192028	8819.984375
4024.986771	0.644952	0.192028	9403.666016
4024.987709	0.103542	0.192028	9500.789062
4024.988776	0.097412	0.192028	9604.727539
4024.989728	0.097500	0.192028	9697.547852
4024.990589	0.097489	0.192028	9781.486328
4024.991640	0.097489	0.192028	9883.947266
4024.992646	0.097412	0.192028	9981.943359
4024.993538	0.097463	0.192028	10068.880859
4024.994510	0.097606	0.192028	10163.753906
4024.995546	0.097452	0.192028	10264.714844
4024.996470	0.097482	0.192028	10354.788086
4026.031407	1.097424	0.191162	582.732361
4026.032459	1.485513	0.191162	2145.491699
4026.033348	1.467100	0.191162	3449.743164
4026.034314	1.430493	0.191162	4831.599609
4026.035390	1.388903	0.191162	6326.058594
4026.036321	1.354739	0.191162	7587.320312
4026.037186	1.323501	0.191162	8732.148437
4026.038268	0.554597	0.191162	9332.222656
4026.039285	0.098522	0.191162	9432.418945
4026.040164	0.097489	0.191162	9518.111328
4026.041141	0.097496	0.191162	9613.365234
4026.042198	0.097577	0.191162	9716.503906
4026.043102	0.097419	0.191162	9804.571289
4026.043971	0.097474	0.191162	9889.276367
4026.045057	0.097489	0.191162	9995.149414
4026.046055	0.097365	0.191162	10092.319336
4026.046943	0.097430	0.191162	10178.837891
4026.047938	0.097603	0.191162	10275.952148
4027.050722	1.021699	0.194671	472.025085
4027.051804	1.484125	0.194671	2077.848145
4027.052756	1.466301	0.194671	3473.766846
4027.053627	1.432456	0.194671	4721.436035
4027.054655	1.392843	0.194671	6153.278809
4027.055693	1.355175	0.194671	7559.950195
4027.056589	1.323094	0.194671	8745.443359
4027.057559	0.678135	0.194671	9403.234375
4027.058618	0.099829	0.194671	9508.953125
4027.059546	0.097463	0.194671	9599.399414
4027.060407	0.097467	0.194671	9683.318359
4027.061472	0.097595	0.194671	9787.256836
4027.062473	0.097423	0.194671	9884.777344
4027.063361	0.097537	0.194671	9971.389648
4027.064325	0.097727	0.194671	10065.598633
4027.065367	0.097588	0.194671	10167.285156
4027.066275	0.097460	0.194671	10255.778320
4027.067133	0.097559	0.194671	10339.483398
4028.100043	1.015324	0.191227	446.742340
4028.100918	1.475768	0.191227	1738.039062
4028.101941	1.472498	0.191227	3244.404053
4028.102845	1.436744	0.191227	4543.220703
4028.103760	1.401793	0.191227	5825.861328
4028.104645	1.367827	0.191227	7036.388184
4028.105693	1.331583	0.191227	8431.887695
4028.106589	1.021091	0.191227	9346.785156
4028.107468	0.144426	0.191227	9473.736328
4028.108445	0.097405	0.191227	9568.900391
4028.109403	0.097419	0.191227	9662.228516
4028.110333	0.097365	0.191227	9752.777344
4028.111200	0.097412	0.191227	9837.233398
4028.112229	0.097397	0.191227	9937.455078
4028.113107	0.097386	0.191227	10022.959961
4028.113977	0.097390	0.191227	10107.689453
4028.114893	0.097412	0.191227	10196.918945
4028.115885	0.097372	0.191227	10293.511719
4029.119715	1.011332	0.197612	468.246552
4029.120597	1.477936	0.197612	1771.785889
4029.121528	1.473512	0.197612	3143.625488
4029.122516	1.436375	0.197612	4562.763672
4029.123445	1.400804	0.197612	5864.110840
4029.124330	1.367688	0.197612	7074.514648
4029.125374	1.331019	0.197612	8464.098633
4029.126282	0.984067	0.197612	9357.631836
4029.127157	0.133971	0.197612	9474.856445
4029.128039	0.097357	0.197612	9560.725586
4029.129081	0.097427	0.197612	9662.244141
4029.129962	0.097408	0.197612	9748.060547
4029.130835	0.097467	0.197612	9833.149414
4029.131840	0.097496	0.197612	9931.132812
4029.132745	0.097328	0.197612	10019.214844
4029.133648	0.097405	0.197612	10107.170898
4029.134524	0.097482	0.197612	10192.564453
4029.135556	0.097324	0.197612	10293.002930
4030.170294	1.017191	0.192516	428.237488
4030.171432	1.484150	0.192516	2117.200439
4030.172397	1.465291	0.192516	3531.205811
4030.173266	1.431683	0.192516	4775.338867
4030.174314	1.391213	0.192516	6233.330566
4030.175364	1.353018	0.192516	7653.999023
4030.176262	1.321575	0.192516	8840.773437
4030.177224	0.623990	0.192516	9441.052734
4030.178277	0.099053	0.192516	9545.355469
4030.179221	0.097449	0.192516	9637.346680
4030.180081	0.097482	0.192516	9721.180664
4030.181145	0.097581	0.192516	9825.006836
4030.182145	0.097383	0.192516	9922.389648
4030.183028	0.097394	0.192516	10008.388672
4030.184011	0.097551	0.192516	10104.281250
4030.185046	0.097507	0.192516	10205.201172
4030.185971	0.097441	0.192516	10295.333984
4030.186830	0.097460	0.192516	10379.051758
4031.187561	1.145208	0.200431	672.236816
4031.188609	1.485996	0.200431	2229.560791
4031.189499	1.464910	0.200431	3533.330566
4031.190439	1.428589	0.200431	4876.204102
4031.191516	1.387654	0.200431	6370.707031
4031.192440	1.353098	0.200431	7620.969727
4031.193316	1.322091	0.200431	8779.121094
4031.194383	0.511238	0.200431	9324.611328
4031.195410	0.098130	0.200431	9425.390625
4031.196297	0.097507	0.200431	9511.879883
4031.197270	0.097533	0.200431	9606.779297
4031.198328	0.097540	0.200431	9709.976562
4031.199243	0.097478	0.200431	9799.168945
4031.200108	0.097482	0.200431	9883.490234
4031.201220	0.097690	0.200431	9992.122070
4031.202212	0.097449	0.200431	10088.791016
4031.203102	0.097518	0.200431	10175.582031
4031.204086	0.097588	0.200431	10271.608398
4032.240408	1.051586	0.192995	546.824524
4032.241464	1.484817	0.192995	2114.791016
4032.242384	1.466301	0.192995	3463.788086
4032.243261	1.431471	0.192995	4719.187988
4032.244339	1.390939	0.192995	6218.620117
4032.245353	1.352988	0.192995	7590.550293
4032.246247	1.322391	0.192995	8772.768555
4032.247254	0.586003	0.192995	9362.874023
4032.248299	0.098756	0.192995	9466.074219
4032.249213	0.097416	0.192995	9555.112305
4032.250076	0.097394	0.192995	9639.163086
4032.251193	0.097493	0.192995	9748.062500
4032.252164	0.097365	0.192995	9842.603516
4032.253028	0.097379	0.192995	9926.739258
4032.254087	0.097430	0.192995	10029.917969
4032.255122	0.097397	0.192995	10130.724609
4032.256013	0.097537	0.192995	10217.629883
4032.256942	0.097485	0.192995	10308.193359
4033.255864	0.989473	0.201298	415.578491
4033.256756	1.473226	0.201298	1729.696411
4033.257861	1.468887	0.201298	3352.816406
4033.258823	1.432353	0.201298	4730.740234
4033.259701	1.397970	0.201298	5958.157715
4033.260759	1.359265	0.201298	7396.260254
4033.261785	1.323190	0.201298	8753.852539
4033.262691	0.710482	0.201298	9397.549805
4033.263652	0.106469	0.201298	9499.866211
4033.264682	0.097533	0.201298	9600.325195
4033.265609	0.097493	0.201298	9690.701172
4033.266468	0.097416	0.201298	9774.380859
4033.267537	0.097507	0.201298	9878.616211
4033.268542	0.097401	0.201298	9976.503906
4033.269422	0.097515	0.201298	10062.316406
4033.270406	0.097408	0.201298	10158.166016
4033.271454	0.097478	0.201298	10260.323242
4033.272362	0.097412	0.201298	10348.773437
4034.310844	1.022523	0.192048	437.639923
4034.311902	1.484454	0.192048	2008.192505
4034.312797	1.470275	0.192048	3324.088379
4034.313683	1.436510	0.192048	4596.835937
4034.314711	1.398087	0.192048	6034.069336
4034.315626	1.363304	0.192048	7281.492676
4034.316503	1.331591	0.192048	8449.297852
4034.317529	0.865291	0.192048	9337.085937
4034.318523	0.108497	0.192048	9444.932617
4034.319405	0.097427	0.192048	9530.863281
4034.320260	0.097394	0.192048	9614.134766
4034.321315	0.097540	0.192048	9717.040039
4034.322235	0.097335	0.192048	9806.588867
4034.323117	0.097405	0.192048	9892.500000
4034.324097	0.097456	0.192048	9988.006836
4034.325106	0.097419	0.192048	10086.302734
4034.325998	0.097335	0.192048	10173.125977
4034.326859	0.097405	0.192048	10256.991211
4035.323332	1.001741	0.202180	429.746765
4035.324317	1.475215	0.202180	1882.833496
4035.325279	1.470831	0.202180	3297.773193
4035.326211	1.435470	0.202180	4635.631348
4035.327077	1.401072	0.202180	5848.959473
4035.328131	1.363400	0.202180	7285.982422
4035.329014	1.330979	0.202180	8461.236328
4035.329898	1.018696	0.202180	9361.763672
4035.330825	0.144712	0.202180	9495.912109
4035.331814	0.097258	0.202180	9592.100586
4035.332710	0.097441	0.202180	9679.408203
4035.333574	0.097537	0.202180	9763.679687
4035.334688	0.097471	0.202180	9872.261719
4035.335591	0.097419	0.202180	9960.231445
4035.336452	0.097386	0.202180	10044.081055
4035.337551	0.097548	0.202180	10151.286133
4035.338529	0.097408	0.202180	10246.551758
4035.339405	0.097463	0.202180	10331.929687
4036.380449	1.081209	0.193406	552.497559
4036.381475	1.484927	0.193406	2076.032227
4036.382364	1.468693	0.193406	3381.699951
4036.383350	1.431757	0.193406	4793.412109
4036.384390	1.390833	0.193406	6239.877930
4036.385322	1.356951	0.193406	7504.555664
4036.386183	1.325343	0.193406	8645.675781
4036.387270	0.621020	0.193406	9320.724609
4036.388276	0.099250	0.193406	9420.570312
4036.389147	0.097423	0.193406	9505.425781
4036.390122	0.097518	0.193406	9600.505859
4036.391180	0.097493	0.193406	9703.653320
4036.392087	0.097317	0.193406	9791.919922
4036.392951	0.097408	0.193406	9876.081055
4036.394043	0.097540	0.193406	9982.594727
4036.395015	0.097460	0.193406	10077.325195
4036.395901	0.097354	0.193406	10163.580078
4036.396895	0.097460	0.193406	10260.455078
4037.391126	1.072053	0.202530	546.747192
4037.392027	1.481287	0.202530	1881.386475
4037.392893	1.471794	0.202530	3155.960449
4037.393999	1.431786	0.202530	4739.515625
4037.394966	1.394403	0.202530	6087.903320
4037.395841	1.362125	0.202530	7279.762695
4037.396890	1.324592	0.202530	8669.259766
4037.397935	0.614498	0.202530	9311.410156
4037.398828	0.101470	0.202530	9402.022461
4037.399763	0.097397	0.202530	9493.088867
4037.400840	0.097533	0.202530	9598.131836
4037.401785	0.097339	0.202530	9690.117187
4037.402647	0.097328	0.202530	9774.013672
4037.403710	0.097632	0.202530	9877.795898
4037.404736	0.097372	0.202530	9977.699219
4037.405628	0.097339	0.202530	10064.525391
4037.406589	0.097441	0.202530	10158.166992
4037.407643	0.097419	0.202530	10260.846680
4038.451201	1.054944	0.193378	519.032349
4038.452075	1.479291	0.193378	1811.932495
4038.453012	1.472523	0.193378	3191.686768
4038.454089	1.431687	0.193378	4733.613770
4038.455037	1.395381	0.193378	6056.434570
4038.455911	1.362546	0.193378	7247.299805
4038.456957	1.325629	0.193378	8633.907227
4038.457984	0.665541	0.193378	9317.417969
4038.458878	0.103337	0.193378	9409.801758
4038.459854	0.097401	0.193378	9504.865234
4038.460911	0.097456	0.193378	9607.875977
4038.461833	0.097379	0.193378	9697.659180
4038.462699	0.097412	0.193378	9782.017578
4038.463805	0.097548	0.193378	9889.905273
4038.464799	0.097335	0.193378	9986.656250
4038.465693	0.097375	0.193378	10073.709961
4038.466675	0.097588	0.193378	10169.541016
4038.467716	0.097467	0.193378	10271.003906
4039.459599	1.036879	0.203767	529.844971
4039.460659	1.484249	0.203767	2103.149170
4039.461606	1.465181	0.203767	3490.675293
4039.462483	1.431141	0.203767	4745.786133
4039.463542	1.390748	0.203767	6218.588379
4039.464556	1.353490	0.203767	7591.027344
4039.465458	1.322205	0.203767	8783.656250
4039.466437	0.607698	0.203767	9378.592773
4039.467483	0.098972	0.203767	9482.117187
4039.468403	0.097368	0.203767	9571.696289
4039.469261	0.097438	0.203767	9655.297852
4039.470341	0.097515	0.203767	9760.613281
4039.471326	0.097375	0.203767	9856.528320
4039.472217	0.097449	0.203767	9943.355469
4039.473213	0.097489	0.203767	10040.454102
4039.474265	0.097449	0.203767	10142.969727
4039.475156	0.097434	0.203767	10229.783203
4039.476011	0.097504	0.203767	10313.148437
4040.521674	1.018645	0.192379	447.185181
4040.522550	1.475676	0.192379	1739.877563
4040.523537	1.473014	0.192379	3193.742187
4040.524552	1.434375	0.192379	4649.632812
4040.525444	1.400024	0.192379	5898.454590
4040.526308	1.366567	0.192379	7079.168945
4040.527408	1.329298	0.192379	8541.396484
4040.528319	0.915549	0.192379	9375.461914
4040.529195	0.124380	0.192379	9484.418945
4040.530205	0.097372	0.192379	9582.764648
4040.531193	0.097412	0.192379	9679.007812
4040.532079	0.097379	0.192379	9765.286133
4040.532933	0.097489	0.192379	9848.541992
4040.534019	0.097533	0.192379	9954.462891
4040.534925	0.097350	0.192379	10042.662109
4040.535793	0.097372	0.192379	10127.180664
4040.536848	0.097441	0.192379	10229.981445
4040.537848	0.097365	0.192379	10327.345703
4041.527557	1.060411	0.204464	512.178650
4041.528464	1.480334	0.204464	1854.842041
4041.529350	1.473647	0.204464	3160.493652
4041.530318	1.437385	0.204464	4551.882812
4041.531291	1.399006	0.204464	5913.115723
4041.532214	1.365234	0.204464	7173.227051
4041.533091	1.333257	0.204464	8342.493164
4041.534139	0.937507	0.204464	9325.000977
4041.535039	0.124680	0.204464	9437.212891
4041.535915	0.097346	0.204464	9522.488281
4041.536807	0.097394	0.204464	9609.363281
4041.537845	0.097386	0.204464	9710.450195
4041.538734	0.097456	0.204464	9797.088867
4041.539591	0.097430	0.204464	9880.586914
4041.540672	0.097434	0.204464	9985.913086
4041.541567	0.097456	0.204464	10073.136719
4041.542449	0.097445	0.204464	10159.083008
4041.543452	0.097668	0.204464	10257.044922
4042.591435	1.016243	0.194204	445.114319
4042.592300	1.474830	0.194204	1720.842529
4042.593413	1.468825	0.194204	3355.644043
4042.594411	1.430094	0.194204	4782.877930
4042.595309	1.395231	0.194204	6035.794922
4042.596311	1.358954	0.194204	7397.466797
4042.597375	1.321915	0.194204	8803.984375
4042.598280	0.660117	0.194204	9401.390625
4042.599189	0.104513	0.194204	9496.392578
4042.600268	0.097478	0.194204	9601.571289
4042.601211	0.097438	0.194204	9693.455078
4042.602078	0.097529	0.194204	9778.012695
4042.603131	0.097577	0.194204	9880.760742
4042.604164	0.097438	0.194204	9981.414062
4042.605045	0.097441	0.194204	10067.259766
4042.606000	0.097537	0.194204	10160.407227
4042.607046	0.097504	0.194204	10262.396484
4042.607978	0.097430	0.194204	10353.201172
4043.596847	1.098962	0.203795	582.450073
4043.597797	1.483832	0.203795	1992.090210
4043.598661	1.471110	0.203795	3263.128906
4043.599735	1.430761	0.203795	4799.765625
4043.600766	1.390701	0.203795	6233.578125
4043.601646	1.358675	0.203795	7429.212402
4043.602619	1.324735	0.203795	8718.179687
4043.603684	0.583140	0.203795	9339.223633
4043.604602	0.100162	0.203795	9431.172852
4043.605458	0.097412	0.203795	9514.557617
4043.606510	0.097515	0.203795	9617.142578
4043.607516	0.097306	0.203795	9715.032227
4043.608408	0.097375	0.203795	9801.891602
4043.609387	0.097500	0.203795	9897.343750
4043.610433	0.097397	0.203795	9999.221680
4043.611351	0.097467	0.203795	10088.696289
4043.612216	0.097522	0.203795	10173.052734
4043.613313	0.097526	0.203795	10280.038086
4044.660495	1.063491	0.193160	535.999573
4044.661374	1.480283	0.193160	1837.168457
4044.662272	1.472688	0.193160	3159.642090
4044.663365	1.431661	0.193160	4724.448242
4044.664326	1.394747	0.193160	6064.800293
4044.665197	1.362634	0.193160	7251.654785
4044.666247	1.325713	0.193160	8643.653320
4044.667273	0.662692	0.193160	9323.575195
4044.668171	0.102762	0.193160	9415.855469
4044.669118	0.097548	0.193160	9508.233398
4044.670171	0.097529	0.193160	9610.931641
4044.671106	0.097452	0.193160	9702.049805
4044.671967	0.097463	0.193160	9785.965820
4044.673020	0.097595	0.193160	9888.733398
4044.674040	0.097332	0.193160	9988.011719
4044.674918	0.097548	0.193160	10073.658203
4044.675908	0.097573	0.193160	10170.255859
4044.676956	0.097570	0.193160	10272.508789
4045.665830	1.071229	0.205479	567.751465
4045.666887	1.484996	0.205479	2137.392578
4045.667802	1.465811	0.205479	3478.609375
4045.668670	1.430973	0.205479	4720.693848
4045.669779	1.389796	0.205479	6261.977539
4045.670779	1.352904	0.205479	7614.881836
4045.671666	1.321677	0.205479	8787.208984
4045.672693	0.555732	0.205479	9357.946289
4045.673745	0.098687	0.205479	9461.764648
4045.674625	0.097559	0.205479	9547.616211
4045.675516	0.097621	0.205479	9634.596680
4045.676601	0.097537	0.205479	9740.423828
4045.677560	0.097460	0.205479	9833.887695
4045.678418	0.097515	0.205479	9917.555664
4045.679457	0.097690	0.205479	10019.055664
4045.680492	0.097430	0.205479	10119.896484
4045.681379	0.097397	0.205479	10206.288086
4045.682331	0.097592	0.205479	10299.195312
4046.728648	1.007765	0.195122	437.369995
4046.729509	1.474182	0.195122	1706.640747
4046.730577	1.470985	0.195122	3277.652832
4046.731454	1.436960	0.195122	4537.867187
4046.732341	1.402848	0.195122	5782.193359
4046.733332	1.366553	0.195122	7136.447266
4046.734278	1.332111	0.195122	8396.624023
4046.735203	1.024486	0.195122	9344.273437
4046.736074	0.145243	0.195122	9470.780273
4046.737136	0.097449	0.195122	9574.270508
4046.738016	0.097343	0.195122	9659.931641
4046.738894	0.097368	0.195122	9745.420898
4046.739873	0.097504	0.195122	9840.876953
4046.740830	0.097463	0.195122	9934.149414
4046.741705	0.097540	0.195122	10019.497070
4046.742622	0.097621	0.195122	10109.015625
4046.743707	0.097452	0.195122	10214.751953
4046.744583	0.097500	0.195122	10300.162109
4047.735875	1.123480	0.205173	617.914124
4047.736923	1.485776	0.205173	2175.007812
4047.737814	1.466041	0.205173	3481.250488
4047.738748	1.430021	0.205173	4816.889648
4047.739841	1.388386	0.205173	6334.395996
4047.740789	1.353790	0.205173	7617.789062
4047.741656	1.323058	0.205173	8764.879883
4047.742717	0.537140	0.205173	9334.785156
4047.743715	0.098661	0.205173	9433.249023
4047.744605	0.097379	0.205173	9519.916016
4047.745597	0.097386	0.205173	9616.523437
4047.746647	0.097537	0.205173	9718.936523
4047.747558	0.097463	0.205173	9807.725586
4047.748416	0.097500	0.205173	9891.380859
4047.749498	0.097610	0.205173	9996.995117
4047.750505	0.097390	0.205173	10095.067383
4047.751390	0.097423	0.205173	10181.287109
4047.752257	0.097522	0.205173	10265.838867
4048.797386	1.008234	0.195029	432.532196
4048.798262	1.475204	0.195029	1724.810669
4048.799241	1.473325	0.195029	3167.195801
4048.800272	1.434379	0.195029	4646.040039
4048.801168	1.399552	0.195029	5900.038574
4048.802038	1.366567	0.195029	7088.952148
4048.803125	1.328676	0.195029	8533.222656
4048.804077	0.866217	0.195029	9357.861328
4048.804955	0.116744	0.195029	9460.363281
4048.805934	0.097390	0.195029	9555.708008
4048.806944	0.097332	0.195029	9654.012695
4048.807837	0.097365	0.195029	9740.958984
4048.808806	0.097507	0.195029	9835.443359
4048.809856	0.097537	0.195029	9937.856445
4048.810771	0.097350	0.195029	10026.931641
4048.811629	0.097423	0.195029	10110.520508
4048.812710	0.097559	0.195029	10215.981445
4048.813700	0.097379	0.195029	10312.386719
4049.805249	0.997573	0.205676	425.963776
4049.806244	1.475273	0.205676	1893.860840
4049.807190	1.470776	0.205676	3285.215332
4049.808104	1.435638	0.205676	4597.388672
4049.808989	1.401138	0.205676	5837.395508
4049.810024	1.363425	0.205676	7248.540527
4049.810934	1.331136	0.205676	8459.875000
4049.811816	1.020893	0.205676	9360.302734
4049.812730	0.144880	0.205676	9492.723633
4049.813739	0.097372	0.205676	9590.971680
4049.814621	0.097434	0.205676	9676.908203
4049.815496	0.097551	0.205676	9762.265625
4049.816596	0.097452	0.205676	9869.462891
4049.817486	0.097427	0.205676	9956.172852
4049.818342	0.097394	0.205676	10039.541992
4049.819424	0.097496	0.205676	10145.033203
4049.820388	0.097467	0.205676	10238.991211
4049.821257	0.097496	0.205676	10323.715820
4050.866686	1.067315	0.196347	515.512878
4050.867569	1.479283	0.196347	1821.720215
4050.868534	1.471919	0.196347	3242.122070
4050.869585	1.431811	0.196347	4746.956055
4050.870513	1.395601	0.196347	6042.073242
4050.871379	1.363077	0.196347	7222.498047
4050.872443	1.326405	0.196347	8633.792969
4050.873451	0.704326	0.196347	9343.753906
4050.874325	0.105524	0.196347	9435.981445
4050.875316	0.097522	0.196347	9532.625977
4050.876388	0.097478	0.196347	9637.122070
4050.877281	0.097489	0.196347	9724.179687
4050.878146	0.097504	0.196347	9808.520508
4050.879240	0.097467	0.196347	9915.149414
4050.880233	0.097445	0.196347	10011.912109
4050.881129	0.097372	0.196347	10099.157227
4050.882109	0.097463	0.196347	10194.670898
4050.883175	0.097463	0.196347	10298.566406
4051.875883	1.105928	0.206993	582.823975
4051.876864	1.484839	0.206993	2039.450928
4051.877745	1.469733	0.206993	3334.285400
4051.878627	1.434177	0.206993	4599.229492
4051.879755	1.393066	0.206993	6170.608398
4051.880650	1.359884	0.206993	7387.704590
4051.881545	1.326918	0.206993	8575.295898
4051.882654	0.645128	0.206993	9290.743164
4051.883608	0.100770	0.206993	9386.877930
4051.884473	0.097456	0.206993	9471.177734
4051.885528	0.097570	0.206993	9574.113281
4051.886556	0.097427	0.206993	9674.267578
4051.887450	0.097383	0.206993	9761.328125
4051.888406	0.097540	0.206993	9854.576172
4051.889460	0.097471	0.206993	9957.310547
4051.890384	0.097456	0.206993	10047.360352
4051.891244	0.097507	0.206993	10131.216797
4051.892332	0.097489	0.206993	10237.285156
4052.934071	0.991011	0.195843	417.215546
4052.935055	1.474585	0.195843	1868.207153
4052.936140	1.466799	0.195843	3459.684570
4052.937048	1.431357	0.195843	4759.356934
4052.937917	1.396765	0.195843	5973.145996
4052.938993	1.357474	0.195843	7433.788086
4052.940002	1.322036	0.195843	8767.722656
4052.940911	0.690432	0.195843	9395.325195
4052.941903	0.103737	0.195843	9498.231445
4052.942965	0.097438	0.195843	9601.709961
4052.943854	0.097375	0.195843	9688.276367
4052.944712	0.097570	0.195843	9771.991211
4052.945828	0.097489	0.195843	9880.789062
4052.946791	0.097383	0.195843	9974.568359
4052.947662	0.097482	0.195843	10059.474609
4052.948710	0.097570	0.195843	10161.727539
4052.949747	0.097460	0.195843	10262.792969
4052.950640	0.097441	0.195843	10349.808594
4053.945374	1.082062	0.207263	552.933594
4053.946400	1.485018	0.207263	2076.562500
4053.947299	1.468015	0.207263	3396.308105
4053.948285	1.430852	0.207263	4807.127930
4053.949337	1.390067	0.207263	6269.478516
4053.950260	1.355647	0.207263	7520.740723
4053.951126	1.324296	0.207263	8667.581055
4053.952223	0.578108	0.207263	9301.765625
4053.953216	0.098987	0.207263	9400.059570
4053.954094	0.097474	0.207263	9485.641602
4053.955096	0.097606	0.207263	9583.443359
4053.956145	0.097599	0.207263	9685.824219
4053.957041	0.097438	0.207263	9773.128906
4053.957899	0.097441	0.207263	9856.733398
4053.959005	0.097548	0.207263	9964.621094
4053.959966	0.097416	0.207263	10058.237305
4053.960830	0.097460	0.207263	10142.442383
4053.961916	0.097595	0.207263	10248.430664
4055.002634	1.060349	0.198349	532.295227
4055.003537	1.481089	0.198349	1869.718506
4055.004402	1.472915	0.198349	3143.790039
4055.005496	1.432456	0.198349	4710.896973
4055.006488	1.394040	0.198349	6093.785156
4055.007384	1.361151	0.198349	7313.376465
4055.008403	1.325519	0.198349	8664.080078
4055.009454	0.634189	0.198349	9330.613281
4055.010327	0.102330	0.198349	9419.947266
4055.011202	0.097423	0.198349	9505.192383
4055.012297	0.097566	0.198349	9612.027344
4055.013262	0.097456	0.198349	9706.072266
4055.014124	0.097372	0.198349	9790.006836
4055.015154	0.097467	0.198349	9890.397461
4055.016189	0.097460	0.198349	9991.268555
4055.017070	0.097401	0.198349	10077.079102
4055.018002	0.097529	0.198349	10167.976562
4055.019071	0.097496	0.198349	10272.200195
4056.016842	1.013873	0.207489	444.076477
4056.017705	1.474340	0.207489	1716.431641
4056.018815	1.469264	0.207489	3347.314453
4056.019781	1.432152	0.207489	4730.773437
4056.020643	1.398787	0.207489	5936.527344
4056.021742	1.358654	0.207489	7429.687500
4056.022782	1.321970	0.207489	8804.536133
4056.023668	0.683811	0.207489	9410.392578
4056.024606	0.105234	0.207489	9509.102539
4056.025669	0.097463	0.207489	9612.706055
4056.026610	0.097386	0.207489	9704.346680
4056.027475	0.097463	0.207489	9788.652344
4056.028508	0.097625	0.207489	9889.498047
4056.029533	0.097434	0.207489	9989.368164
4056.030419	0.097408	0.207489	10075.671875
4056.031378	0.097419	0.207489	10169.096680
4056.032425	0.097518	0.207489	10271.198242
4056.033355	0.097375	0.207489	10361.757812
4057.070271	0.997485	0.199412	427.921204
4057.071141	1.474047	0.199412	1710.341797
4057.072005	1.477093	0.199412	2986.550537
4057.073028	1.439872	0.199412	4459.539551
4057.073954	1.403822	0.199412	5759.478516
4057.074825	1.370966	0.199412	6953.589844
4057.075888	1.334615	0.199412	8372.286133
4057.076768	1.097834	0.199412	9338.380859
4057.077635	0.167666	0.199412	9483.747070
4057.078493	0.097412	0.199412	9567.326172
4057.079558	0.097504	0.199412	9671.167969
4057.080453	0.097401	0.199412	9758.341797
4057.081332	0.097507	0.199412	9844.050781
4057.082322	0.097603	0.199412	9940.677734
4057.083269	0.097441	0.199412	10032.955078
4057.084192	0.097478	0.199412	10122.927734
4057.085058	0.097518	0.199412	10207.378906
4057.086100	0.097493	0.199412	10308.965820
4058.087370	1.013104	0.206675	440.700378
4058.088242	1.475273	0.206675	1727.138916
4058.089269	1.471520	0.206675	3238.389648
4058.090176	1.436906	0.206675	4541.663086
4058.091056	1.403053	0.206675	5776.349609
4058.092036	1.367183	0.206675	7116.188477
4058.093013	1.332081	0.206675	8417.631836
4058.093949	1.000184	0.206675	9353.804687
4058.094813	0.141277	0.206675	9475.868164
4058.095852	0.097474	0.206675	9577.143555
4058.096730	0.097595	0.206675	9662.832031
4058.097601	0.097562	0.206675	9747.808594
4058.098506	0.097515	0.206675	9836.059570
4058.099513	0.097397	0.206675	9934.138672
4058.100426	0.097529	0.206675	10023.182617
4058.101296	0.097551	0.206675	10108.051758
4058.102391	0.097408	0.206675	10214.713867
4058.103307	0.097445	0.206675	10303.973633
4059.138096	1.089642	0.199779	572.062256
4059.139136	1.485168	0.199779	2116.637451
4059.140033	1.467144	0.199779	3432.665039
4059.140979	1.431039	0.199779	4786.427734
4059.142052	1.389514	0.199779	6277.376465
4059.142998	1.354512	0.199779	7558.744629
4059.143863	1.323929	0.199779	8703.943359
4059.144941	0.571311	0.199779	9319.816406
4059.145938	0.098899	0.199779	9418.418945
4059.146819	0.097317	0.199779	9504.155273
4059.147810	0.097478	0.199779	9600.755859
4059.148843	0.097449	0.199779	9701.419922
4059.149762	0.097449	0.199779	9790.975586
4059.150618	0.097456	0.199779	9874.398437
4059.151696	0.097511	0.199779	9979.515625
4059.152691	0.097496	0.199779	10076.524414
4059.153564	0.097419	0.199779	10161.571289
4059.154552	0.097537	0.199779	10257.937500
4060.157110	0.998566	0.204500	419.397614
4060.158178	1.481781	0.204500	2001.939697
4060.159202	1.465027	0.204500	3502.127197
4060.160102	1.430240	0.204500	4789.343750
4060.161089	1.392810	0.204500	6164.047363
4060.162158	1.353417	0.204500	7610.850098
4060.163067	1.321842	0.204500	8812.404297
4060.163943	0.675520	0.204500	9404.160156
4060.165046	0.099814	0.204500	9514.255859
4060.166015	0.097405	0.204500	9608.640625
4060.166880	0.097361	0.204500	9692.857422
4060.167968	0.097427	0.204500	9798.857422
4060.169006	0.097533	0.204500	9900.096680
4060.169891	0.097445	0.204500	9986.335937
4060.170820	0.097628	0.204500	10077.032227
4060.171885	0.097562	0.204500	10180.935547
4060.172829	0.097401	0.204500	10272.881836
4060.173689	0.097445	0.204500	10356.684570
4061.206462	0.993765	0.199682	422.349976
4061.207397	1.473874	0.199682	1800.422607
4061.208500	1.467396	0.199682	3418.960693
4061.209429	1.431229	0.199682	4748.572754
4061.210302	1.397098	0.199682	5968.239746
4061.211356	1.358485	0.199682	7400.083008
4061.212386	1.322102	0.199682	8761.847656
4061.213286	0.704440	0.199682	9395.843750
4061.214253	0.105509	0.199682	9497.871094
4061.215313	0.097595	0.199682	9601.322266
4061.216230	0.097507	0.199682	9690.736328
4061.217090	0.097445	0.199682	9774.539062
4061.218189	0.097661	0.199682	9881.868164
4061.219173	0.097463	0.199682	9977.772461
4061.220069	0.097463	0.199682	10065.099609
4061.221067	0.097606	0.199682	10162.510742
4061.222129	0.097526	0.199682	10266.083008
4061.223025	0.097449	0.199682	10353.397461
4062.225865	0.998738	0.202744	433.452209
4062.226737	1.474607	0.202744	1719.309326
4062.227777	1.471322	0.202744	3249.484375
4062.228823	1.431460	0.202744	4746.791504
4062.229719	1.396619	0.202744	5998.161621
4062.230672	1.362166	0.202744	7296.305664
4062.231739	1.324010	0.202744	8709.024414
4062.232678	0.708717	0.202744	9374.509766
4062.233539	0.106633	0.202744	9466.321289
4062.234602	0.097507	0.202744	9569.971680
4062.235618	0.097533	0.202744	9669.065430
4062.236500	0.097449	0.202744	9755.015625
4062.237481	0.097544	0.202744	9850.706055
4062.238540	0.097504	0.202744	9953.962891
4062.239449	0.097427	0.202744	10042.523437
4062.240307	0.097500	0.202744	10126.178711
4062.241399	0.097537	0.202744	10232.688477
4062.242397	0.097441	0.202744	10329.934570
4063.274422	1.004535	0.198635	422.909210
4063.275502	1.482726	0.198635	2024.252930
4063.276385	1.470062	0.198635	3322.317871
4063.277256	1.436499	0.198635	4573.508789
4063.278238	1.399164	0.198635	5947.487305
4063.279186	1.363579	0.198635	7240.160156
4063.280108	1.330657	0.198635	8467.025391
4063.280991	1.014331	0.198635	9362.679687
4063.282040	0.117393	0.198635	9485.824219
4063.282935	0.097258	0.198635	9572.870117
4063.283812	0.097401	0.198635	9658.291016
4063.284749	0.097460	0.198635	9749.610352
4063.285744	0.097379	0.198635	9846.502930
4063.286615	0.097423	0.198635	9931.358398
4063.287491	0.097515	0.198635	10016.781250
4063.288590	0.097471	0.198635	10123.901367
4063.289476	0.097299	0.198635	10210.107422
4063.290331	0.097456	0.198635	10293.432617
4064.294981	1.121433	0.202023	631.366882
4064.295913	1.484139	0.202023	2014.584961
4064.296794	1.470161	0.202023	3309.796875
4064.297786	1.432778	0.202023	4731.112793
4064.298792	1.393543	0.202023	6133.016602
4064.299690	1.360547	0.202023	7354.787598
4064.300554	1.328291	0.202023	8502.430664
4064.301641	0.742507	0.202023	9309.536133
4064.302552	0.105905	0.202023	9406.015625
4064.303422	0.097346	0.202023	9490.707031
4064.304419	0.097471	0.202023	9587.885742
4064.305420	0.097445	0.202023	9685.428711
4064.306302	0.097581	0.202023	9771.495117
4064.307156	0.097537	0.202023	9854.791016
4064.308207	0.097489	0.202023	9957.251953
4064.309135	0.097383	0.202023	10047.623047
4064.310012	0.097379	0.202023	10133.024414
4064.310979	0.097592	0.202023	10227.395508
4065.345259	1.044877	0.197805	492.136932
4065.346140	1.478185	0.197805	1794.417847
4065.347102	1.472340	0.197805	3210.809082
4065.348170	1.431694	0.197805	4739.858398
4065.349088	1.396223	0.197805	6021.591309
4065.349961	1.363019	0.197805	7211.506836
4065.351048	1.325240	0.197805	8652.042969
4065.352059	0.669961	0.197805	9329.373047
4065.352954	0.103403	0.197805	9421.918945
4065.353951	0.097577	0.197805	9519.203125
4065.355001	0.097577	0.197805	9621.659180
4065.355912	0.097467	0.197805	9710.451172
4065.356774	0.097537	0.197805	9794.527344
4065.357874	0.097636	0.197805	9901.926758
4065.358838	0.097419	0.197805	9995.838867
4065.359701	0.097493	0.197805	10079.974609
4065.360773	0.097610	0.197805	10184.612305
4065.361814	0.097485	0.197805	10286.094727
4066.364457	1.090302	0.200750	568.047119
4066.365423	1.484004	0.200750	2001.594849
4066.366287	1.470839	0.200750	3272.399414
4066.367352	1.430402	0.200750	4795.777344
4066.368388	1.390675	0.200750	6236.516602
4066.369275	1.357343	0.200750	7440.479492
4066.370200	1.325197	0.200750	8666.286133
4066.371292	0.593405	0.200750	9314.284180
4066.372234	0.099891	0.200750	9408.381836
4066.373093	0.097419	0.200750	9492.065430
4066.374136	0.097566	0.200750	9593.827148
4066.375173	0.097533	0.200750	9694.968750
4066.376050	0.097441	0.200750	9780.424805
4066.377010	0.097551	0.200750	9874.074219
4066.378075	0.097537	0.200750	9977.951172
4066.378991	0.097383	0.200750	10067.154297
4066.379861	0.097540	0.200750	10152.014648
4066.380957	0.097485	0.200750	10258.858398
4067.414793	1.059672	0.198248	530.895508
4067.415682	1.480547	0.198248	1847.101685
4067.416547	1.472750	0.198248	3121.030762
4067.417662	1.432053	0.198248	4717.770020
4067.418638	1.394604	0.198248	6078.903809
4067.419508	1.362213	0.198248	7264.029297
4067.420595	1.324288	0.198248	8703.530273
4067.421631	0.594349	0.198248	9319.276367
4067.422520	0.101320	0.198248	9409.349609
4067.423458	0.097408	0.198248	9500.718750
4067.424515	0.097573	0.198248	9603.853516
4067.425447	0.097427	0.198248	9694.655273
4067.426310	0.097577	0.198248	9778.864258
4067.427364	0.097544	0.198248	9881.675781
4067.428381	0.097445	0.198248	9980.777344
4067.429261	0.097474	0.198248	10066.554687
4067.430226	0.097471	0.198248	10160.614258
4067.431289	0.097423	0.198248	10264.174805
4068.431158	1.101797	0.201583	587.257751
4068.432084	1.483217	0.201583	1960.716309
4068.432948	1.471267	0.201583	3231.891113
4068.434039	1.430233	0.201583	4792.275391
4068.435061	1.390902	0.201583	6213.777344
4068.435942	1.358544	0.201583	7410.654297
4068.436953	1.323783	0.201583	8748.999023
4068.438012	0.558322	0.201583	9340.261719
4068.438913	0.100042	0.201583	9430.399414
4068.439770	0.097408	0.201583	9513.878906
4068.440860	0.097397	0.201583	9620.041992
4068.441814	0.097354	0.201583	9712.916992
4068.442692	0.097372	0.201583	9798.409180
4068.443693	0.097460	0.201583	9895.966797
4068.444754	0.097496	0.201583	9999.410156
4068.445644	0.097386	0.201583	10086.083984
4068.446510	0.097394	0.201583	10170.426758
4068.447629	0.097474	0.201583	10279.500977
4069.486612	1.043763	0.196153	537.538147
4069.487673	1.484440	0.196153	2112.528809
4069.488621	1.464646	0.196153	3501.013184
4069.489554	1.429021	0.196153	4834.290039
4069.490423	1.394846	0.196153	6046.411133
4069.491479	1.356940	0.196153	7479.339355
4069.492383	1.324816	0.196153	8676.972656
4069.493269	0.811139	0.196153	9395.641602
4069.494253	0.112416	0.196153	9506.258789
4069.495215	0.097456	0.196153	9600.011719
4069.496137	0.097482	0.196153	9689.889648
4069.497002	0.097496	0.196153	9774.223633
4069.498042	0.097529	0.196153	9875.654297
4069.498915	0.097379	0.196153	9960.666016
4069.499792	0.097452	0.196153	10046.131836
4069.500698	0.097570	0.196153	10134.530273
4069.501720	0.097467	0.196153	10234.141602
4069.502649	0.097471	0.196153	10324.691406
4070.498516	1.022754	0.203718	452.057251
4070.499394	1.476079	0.203718	1748.054687
4070.500456	1.469513	0.203718	3308.677490
4070.501466	1.430541	0.203718	4753.523437
4070.502374	1.395916	0.203718	6021.014648
4070.503363	1.360093	0.203718	7366.146484
4070.504433	1.322329	0.203718	8781.039062
4070.505350	0.664116	0.203718	9390.033203
4070.506215	0.104473	0.203718	9480.402344
4070.507324	0.097592	0.203718	9588.631836
4070.508282	0.097427	0.203718	9681.966797
4070.509208	0.097423	0.203718	9772.180664
4070.510084	0.097452	0.203718	9857.548828
4070.511100	0.097570	0.203718	9956.679687
4070.512014	0.097449	0.203718	10045.748047
4070.512928	0.097445	0.203718	10134.812500
4070.513787	0.097592	0.203718	10218.643555
4070.514818	0.097463	0.203718	10319.127930
4071.557395	1.068680	0.197503	540.752258
4071.558341	1.482832	0.197503	1943.511230
4071.559206	1.472088	0.197503	3216.866943
4071.560274	1.431687	0.197503	4745.908691
4071.561300	1.392030	0.197503	6174.131836
4071.562193	1.358789	0.197503	7387.530273
4071.563174	1.325057	0.197503	8687.412109
4071.564241	0.595082	0.197503	9322.364258
4071.565152	0.100657	0.197503	9414.062500
4071.566010	0.097441	0.197503	9497.666992
4071.567096	0.097555	0.197503	9603.611328
4071.568093	0.097522	0.197503	9700.840820
4071.568971	0.097460	0.197503	9786.410156
4071.569968	0.097489	0.197503	9883.606445
4071.571015	0.097460	0.197503	9985.646484
4071.571900	0.097375	0.197503	10071.824219
4071.572768	0.097511	0.197503	10156.463867
4071.573880	0.097463	0.197503	10264.842773
4072.565961	1.014448	0.204464	442.299408
4072.566828	1.474438	0.204464	1720.637573
4072.567897	1.470370	0.204464	3292.462891
4072.568786	1.436342	0.204464	4569.370605
4072.569649	1.401735	0.204464	5779.067383
4072.570736	1.362506	0.204464	7260.111328
4072.571663	1.330001	0.204464	8493.022461
4072.572544	0.995691	0.204464	9370.226562
4072.573523	0.137021	0.204464	9504.370117
4072.574544	0.097419	0.204464	9603.834961
4072.575436	0.097394	0.204464	9690.709961
4072.576297	0.097441	0.204464	9774.607422
4072.577369	0.097551	0.204464	9879.182617
4072.578292	0.097416	0.204464	9969.097656
4072.579175	0.097460	0.204464	10055.154297
4072.580133	0.097471	0.204464	10148.531250
4072.581166	0.097460	0.204464	10249.207031
4072.582062	0.097386	0.204464	10336.464844
4073.627871	1.037505	0.196492	474.139740
4073.628750	1.476826	0.196492	1772.269897
4073.629762	1.471578	0.196492	3261.507324
4073.630808	1.431709	0.196492	4759.074707
4073.631695	1.396633	0.196492	5997.888672
4073.632572	1.363011	0.196492	7193.250000
4073.633681	1.324713	0.196492	8662.356445
4073.634675	0.698496	0.196492	9356.661133
4073.635540	0.105355	0.196492	9447.792969
4073.636606	0.097540	0.196492	9551.770508
4073.637644	0.097482	0.196492	9652.956055
4073.638535	0.097401	0.196492	9739.740234
4073.639449	0.097504	0.196492	9828.858398
4073.640526	0.097540	0.196492	9933.909180
4073.641472	0.097372	0.196492	10026.022461
4073.642339	0.097463	0.196492	10110.523437
4073.643403	0.097496	0.196492	10214.259766
4073.644421	0.097383	0.196492	10313.395508
4074.635196	0.991904	0.204117	417.591705
4074.636144	1.473651	0.204117	1814.613037
4074.637205	1.467946	0.204117	3372.103271
4074.638145	1.431991	0.204117	4718.174805
4074.639017	1.397714	0.204117	5936.980957
4074.640097	1.358518	0.204117	7404.180664
4074.641100	1.323153	0.204117	8731.302734
4074.642003	0.735831	0.204117	9395.758789
4074.642992	0.106216	0.204117	9500.806641
4074.644038	0.097423	0.204117	9602.710937
4074.644948	0.097518	0.204117	9691.452148
4074.645809	0.097518	0.204117	9775.415039
4074.646913	0.097526	0.204117	9883.083008
4074.647861	0.097419	0.204117	9975.436523
4074.648736	0.097544	0.204117	10060.787109
4074.649749	0.097566	0.204117	10159.621094
4074.650806	0.097438	0.204117	10262.613281
4074.651688	0.097518	0.204117	10348.624023
4075.696919	1.075159	0.197793	541.880005
4075.697873	1.483004	0.197793	1956.665894
4075.698739	1.471622	0.197793	3231.090820
4075.699794	1.431914	0.197793	4741.759766
4075.700825	1.392220	0.197793	6177.139160
4075.701710	1.359532	0.197793	7380.325195
4075.702662	1.326072	0.197793	8642.745117
4075.703717	0.644509	0.197793	9322.702148
4075.704655	0.101418	0.197793	9417.833008
4075.705514	0.097434	0.197793	9501.529297
4075.706580	0.097621	0.197793	9605.592773
4075.707602	0.097427	0.197793	9705.163086
4075.708474	0.097405	0.197793	9790.099609
4075.709392	0.097361	0.197793	9879.476562
4075.710270	0.097445	0.197793	9965.033203
4075.711259	0.097467	0.197793	10061.427734
4075.712187	0.097493	0.197793	10151.901367
4075.713064	0.097482	0.197793	10237.392578
4076.703258	1.075184	0.205652	548.343994
4076.704261	1.484044	0.205652	2036.840332
4076.705147	1.469030	0.205652	3338.400391
4076.706151	1.431163	0.205652	4775.288086
4076.707227	1.390074	0.205652	6271.008301
4076.708117	1.357148	0.205652	7478.870117
4076.708988	1.323805	0.205652	8631.904297
4076.710119	0.551591	0.205652	9255.752930
4076.711082	0.099071	0.205652	9351.158203
4076.711949	0.097515	0.205652	9435.703125
4076.712977	0.097566	0.205652	9536.000977
4076.714015	0.097507	0.205652	9637.213867
4076.714906	0.097434	0.205652	9724.027344
4076.715843	0.097500	0.205652	9815.384766
4076.716916	0.097485	0.205652	9919.986328
4076.717863	0.097449	0.205652	10012.270508
4076.718727	0.097570	0.205652	10096.570312
4076.719805	0.097650	0.205652	10201.836914
4077.767193	1.066930	0.196584	544.134277
4077.768074	1.474970	0.196584	1843.582397
4077.768974	1.465583	0.196584	3162.607422
4077.770074	1.429501	0.196584	4735.058105
4077.771040	1.389664	0.196584	6077.473633
4077.771911	1.359218	0.196584	7261.352051
4077.772971	1.324442	0.196584	8665.260742
4077.774005	0.605182	0.196584	9291.018555
4077.774896	0.101580	0.196584	9381.526367
4077.775855	0.097500	0.196584	9475.029297
4077.776919	0.097592	0.196584	9578.867187
4077.777844	0.097423	0.196584	9668.983398
4077.778707	0.097108	0.196584	9752.788086
4077.779780	0.097181	0.196584	9857.063477
4077.780775	0.097460	0.196584	9954.036133
4077.781659	0.097478	0.196584	10040.207031
4077.782651	0.097643	0.196584	10137.068359
4077.783699	0.097500	0.196584	10239.248047
4078.772156	0.993014	0.207268	422.030914
4078.773190	1.479155	0.207268	1951.477417
4078.774166	1.468246	0.207268	3384.485352
4078.775037	1.434456	0.207268	4633.895996
4078.776118	1.393469	0.207268	6140.236328
4078.777157	1.355746	0.207268	7548.856445
4078.778040	1.323776	0.207268	8717.750000
4078.778984	0.713862	0.207268	9391.635742
4078.780067	0.100375	0.207268	9500.341797
4078.780995	0.097368	0.207268	9590.699219
4078.781860	0.097540	0.207268	9675.071289
4078.782903	0.097504	0.207268	9776.767578
4078.783932	0.097375	0.207268	9876.966797
4078.784817	0.097386	0.207268	9963.154297
4078.785789	0.097529	0.207268	10057.953125
4078.786850	0.097533	0.207268	10161.435547
4078.787773	0.097456	0.207268	10251.387695
4078.788634	0.097474	0.207268	10335.313477
4079.837169	1.047828	0.197769	497.718506
4079.838047	1.477852	0.197769	1795.272095
4079.839016	1.471842	0.197769	3221.486816
4079.840078	1.431709	0.197769	4741.961914
4079.840993	1.395963	0.197769	6019.268066
4079.841873	1.362502	0.197769	7218.270508
4079.842959	1.324717	0.197769	8656.913086
4079.843965	0.665416	0.197769	9326.322266
4079.844858	0.103542	0.197769	9418.786133
4079.845852	0.097456	0.197769	9515.657227
4079.846908	0.097507	0.197769	9618.625000
4079.847811	0.097438	0.197769	9706.611328
4079.848670	0.097452	0.197769	9790.323242
4079.849787	0.097577	0.197769	9899.316406
4079.850752	0.097511	0.197769	9993.414062
4079.851616	0.097306	0.197769	10077.486328
4079.852668	0.097628	0.197769	10180.191406
4079.853702	0.097390	0.197769	10280.892578
4080.840656	1.013756	0.209962	443.011444
4080.841530	1.475449	0.209962	1732.554077
4080.842549	1.471187	0.209962	3231.693115
4080.843601	1.431504	0.209962	4737.635254
4080.844494	1.396611	0.209962	5984.809082
4080.845436	1.361946	0.209962	7267.761719
4080.846509	1.323834	0.209962	8688.236328
4080.847459	0.711156	0.209962	9363.834961
4080.848327	0.106187	0.209962	9456.004883
4080.849399	0.097500	0.209962	9560.524414
4080.850412	0.097273	0.209962	9659.061523
4080.851307	0.097511	0.209962	9746.333984
4080.852283	0.097522	0.209962	9841.515625
4080.853329	0.097537	0.209962	9943.539062
4080.854252	0.097434	0.209962	10033.470703
4080.855112	0.097493	0.209962	10117.314453
4080.856194	0.097482	0.209962	10222.790039
4080.857205	0.097375	0.209962	10321.236328
4081.905588	0.988304	0.198220	415.087830
4081.906615	1.479115	0.198220	1934.138916
4081.907542	1.469143	0.198220	3296.034668
4081.908484	1.433756	0.198220	4646.632812
4081.909355	1.398688	0.198220	5864.889648
4081.910421	1.360935	0.198220	7315.646484
4081.911315	1.329239	0.198220	8503.986328
4081.912206	0.978644	0.198220	9375.958008
4081.913248	0.124417	0.198220	9505.599609
4081.914168	0.097397	0.198220	9595.205078
4081.915046	0.097427	0.198220	9680.746094
4081.916047	0.097581	0.198220	9778.423828
4081.917048	0.097408	0.198220	9875.929687
4081.917930	0.097482	0.198220	9961.908203
4081.918786	0.097511	0.198220	10045.377930
4081.919860	0.097456	0.198220	10150.045898
4081.920784	0.097467	0.198220	10240.105469
4081.921660	0.097463	0.198220	10325.483398
4082.909205	1.075225	0.211296	544.063599
4082.910224	1.484421	0.211296	2056.688965
4082.911119	1.468169	0.211296	3370.700195
4082.912105	1.430863	0.211296	4781.531250
4082.913168	1.389763	0.211296	6258.849609
4082.914087	1.355599	0.211296	7504.645508
4082.915014	1.323417	0.211296	8731.453125
4082.915889	0.754376	0.211296	9391.532227
4082.916945	0.101019	0.211296	9498.208984
4082.917827	0.097372	0.211296	9584.090820
4082.918697	0.097379	0.211296	9668.810547
4082.919703	0.097485	0.211296	9766.880859
4082.920633	0.097383	0.211296	9857.447266
4082.921533	0.097423	0.211296	9945.127930
4082.922408	0.097478	0.211296	10030.420898
4082.923429	0.097394	0.211296	10129.860352
4082.924321	0.097401	0.211296	10216.742187
4082.925199	0.097489	0.211296	10302.337891
4083.974580	0.992142	0.199561	417.691895
4083.975607	1.480030	0.199561	1937.683105
4083.976649	1.465712	0.199561	3464.954590
4083.977542	1.431156	0.199561	4742.976562
4083.978506	1.394451	0.199561	6087.227051
4083.979573	1.354783	0.199561	7532.780273
4083.980521	1.321930	0.199561	8785.969727
4083.981397	0.710618	0.199561	9408.470703
4083.982470	0.100583	0.199561	9516.396484
4083.983485	0.097390	0.199561	9615.247070
4083.984380	0.097511	0.199561	9702.519531
4083.985359	0.097537	0.199561	9798.007812
4083.986395	0.097482	0.199561	9898.999023
4083.987310	0.097390	0.199561	9988.111328
4083.988170	0.097471	0.199561	10071.936523
4083.989251	0.097515	0.199561	10177.349609
4083.990242	0.097438	0.199561	10273.910156
4083.991136	0.097467	0.199561	10361.045898
4084.978762	1.124165	0.211119	635.153259
4084.979822	1.485304	0.211119	2209.575439
4084.980706	1.464987	0.211119	3504.623535
4084.981622	1.428970	0.211119	4813.559570
4084.982723	1.387749	0.211119	6341.471191
4084.983673	1.353311	0.211119	7627.116211
4084.984538	1.322296	0.211119	8770.902344
4084.985596	0.552162	0.211119	9355.089844
4084.986622	0.098547	0.211119	9456.199219
4084.987497	0.097394	0.211119	9541.418945
4084.988457	0.097474	0.211119	9634.994141
4084.989526	0.097394	0.211119	9739.108398
4084.990440	0.097434	0.211119	9828.163086
4084.991304	0.097416	0.211119	9912.330078
4084.992364	0.097559	0.211119	10015.742187
4084.993371	0.097419	0.211119	10113.843750
4084.994263	0.097339	0.211119	10200.669922
4084.995234	0.097559	0.211119	10295.399414
4086.043613	1.025775	0.199880	459.547241
4086.044474	1.475350	0.199880	1729.823853
4086.045543	1.469604	0.199880	3300.831055
4086.046570	1.430376	0.199880	4769.827148
4086.047453	1.395674	0.199880	6002.207031
4086.048434	1.360327	0.199880	7336.687988
4086.049496	1.322823	0.199880	8741.526367
4086.050417	0.691359	0.199880	9378.267578
4086.051278	0.105619	0.199880	9469.205078
4086.052378	0.097365	0.199880	9576.305664
4086.053368	0.097397	0.199880	9672.729492
4086.054262	0.097427	0.199880	9759.829102
4086.055253	0.097471	0.199880	9856.422852
4086.056318	0.097386	0.199880	9960.139648
4086.057210	0.097438	0.199880	10047.053711
4086.058083	0.097379	0.199880	10132.065430
4086.058938	0.097430	0.199880	10215.368164
4086.059989	0.097375	0.199880	10317.709961
4087.048733	1.081080	0.210385	550.269897
4087.049754	1.484531	0.210385	2065.976318
4087.050651	1.467957	0.210385	3382.733398
4087.051616	1.431207	0.210385	4763.848145
4087.052678	1.390408	0.210385	6240.460937
4087.053604	1.356526	0.210385	7496.604004
4087.054468	1.325237	0.210385	8641.608398
4087.055559	0.606427	0.210385	9303.220703
4087.056560	0.099353	0.210385	9402.672852
4087.057436	0.097438	0.210385	9488.028320
4087.058438	0.097507	0.210385	9585.730469
4087.059494	0.097559	0.210385	9688.751953
4087.060390	0.097452	0.210385	9776.069336
4087.061245	0.097445	0.210385	9859.384766
4087.062332	0.097544	0.210385	9965.415039
4087.063291	0.097452	0.210385	10058.872070
4087.064173	0.097460	0.210385	10144.832031
4087.065177	0.097537	0.210385	10242.758789
4088.112404	1.070662	0.200786	538.542847
4088.113341	1.482165	0.200786	1927.331909
4088.114222	1.471443	0.200786	3223.672852
4088.115161	1.435741	0.200786	4571.833496
4088.116237	1.394619	0.200786	6072.443848
4088.117139	1.361481	0.200786	7300.499512
4088.118011	1.329349	0.200786	8459.692383
4088.119092	0.772061	0.200786	9294.290039
4088.120039	0.105161	0.200786	9393.877930
4088.120903	0.097401	0.200786	9478.032227
4088.121962	0.097511	0.200786	9581.295898
4088.122973	0.097416	0.200786	9679.783203
4088.123858	0.097416	0.200786	9765.996094
4088.124815	0.097416	0.200786	9859.222656
4088.125847	0.097493	0.200786	9959.834961
4088.126773	0.097507	0.200786	10050.126953
4088.127629	0.097419	0.200786	10133.517578
4088.128700	0.097441	0.200786	10237.876953
4089.117628	0.997877	0.209294	426.093567
4089.118492	1.473069	0.209294	1698.824951
4089.119545	1.471084	0.209294	3247.876221
4089.120437	1.437173	0.209294	4529.834473
4089.121308	1.402628	0.209294	5751.523437
4089.122379	1.363806	0.209294	7212.159668
4089.123321	1.330049	0.209294	8465.065430
4089.124199	1.017730	0.209294	9358.631836
4089.125158	0.142493	0.209294	9495.282227
4089.126183	0.097295	0.209294	9595.009766
4089.127072	0.097467	0.209294	9681.658203
4089.127937	0.097365	0.209294	9765.878906
4089.128991	0.097515	0.209294	9868.659180
4089.129941	0.097321	0.209294	9961.113281
4089.130818	0.097335	0.209294	10046.476562
4089.131754	0.097507	0.209294	10137.743164
4089.132805	0.097460	0.209294	10240.172852
4089.133705	0.097394	0.209294	10327.827148
4090.181696	1.112010	0.198457	608.269714
4090.182732	1.485267	0.198457	2147.006592
4090.183626	1.466125	0.198457	3457.722656
4090.184589	1.429702	0.198457	4834.525879
4090.185635	1.389016	0.198457	6287.436523
4090.186572	1.354699	0.198457	7556.789062
4090.187441	1.323614	0.198457	8707.009766
4090.188513	0.584528	0.198457	9333.623047
4090.189529	0.098939	0.198457	9434.145508
4090.190404	0.097441	0.198457	9519.406250
4090.191399	0.097610	0.198457	9616.528320
4090.192453	0.097507	0.198457	9719.300781
4090.193348	0.097423	0.198457	9806.494141
4090.194212	0.097588	0.198457	9890.810547
4090.195290	0.097537	0.198457	9995.955078
4090.196274	0.097394	0.198457	10091.791016
4090.197165	0.097375	0.198457	10178.552734
4090.198164	0.097562	0.198457	10276.017578
4091.187388	1.004711	0.210277	424.992676
4091.188483	1.482374	0.210277	2048.192383
4091.189477	1.464957	0.210277	3504.359863
4091.190374	1.430431	0.210277	4787.456543
4091.191393	1.391814	0.210277	6205.714844
4091.192440	1.353490	0.210277	7622.818848
4091.193333	1.321465	0.210277	8802.886719
4091.194201	0.688297	0.210277	9400.328125
4091.195311	0.100474	0.210277	9511.853516
4091.196278	0.097456	0.210277	9606.093750
4091.197140	0.097522	0.210277	9690.157227
4091.198186	0.097595	0.210277	9792.242187
4091.199230	0.097537	0.210277	9894.070312
4091.200108	0.097460	0.210277	9979.639648
4091.201025	0.097628	0.210277	10069.165039
4091.202102	0.097445	0.210277	10174.113281
4091.203051	0.097416	0.210277	10266.560547
4091.203916	0.097423	0.210277	10350.831055
4092.250046	0.995640	0.199831	421.155579
4092.250994	1.473878	0.199831	1818.392090
4092.252062	1.467458	0.199831	3385.637695
4092.252999	1.431328	0.199831	4726.791992
4092.253875	1.397314	0.199831	5950.839355
4092.254932	1.358547	0.199831	7386.823730
4092.255951	1.322831	0.199831	8734.788086
4092.256857	0.726009	0.199831	9392.552734
4092.257836	0.106315	0.199831	9496.634766
4092.258899	0.097562	0.199831	9600.343750
4092.259811	0.097471	0.199831	9689.237305
4092.260733	0.097449	0.199831	9779.084961
4092.261596	0.097405	0.199831	9863.145508
4092.262652	0.097445	0.199831	9966.047852
4092.263539	0.097526	0.199831	10052.552734
4092.264413	0.097507	0.199831	10137.774414
4092.265415	0.097482	0.199831	10235.451172
4092.266351	0.097474	0.199831	10326.687500
4093.257438	1.018173	0.210023	470.395752
4093.258530	1.483370	0.210023	2090.236328
4093.259495	1.464840	0.210023	3503.807129
4093.260368	1.430925	0.210023	4753.004883
4093.261428	1.390052	0.210023	6226.460449
4093.262451	1.353127	0.210023	7610.709961
4093.263345	1.321370	0.210023	8792.014648
4093.264316	0.627989	0.210023	9401.791992
4093.265372	0.099236	0.210023	9506.584961
4093.266297	0.097427	0.210023	9596.705078
4093.267154	0.097430	0.210023	9680.203125
4093.268236	0.097625	0.210023	9785.833008
4093.269238	0.097357	0.210023	9883.384766
4093.270113	0.097456	0.210023	9968.659180
4093.271119	0.097522	0.210023	10066.766602
4093.272161	0.097467	0.210023	10168.327148
4093.273059	0.097365	0.210023	10255.760742
4093.273915	0.097430	0.210023	10339.161133
4094.317242	0.992238	0.199541	418.724243
4094.318276	1.478569	0.199541	1947.564819
4094.319259	1.467949	0.199541	3390.559082
4094.320125	1.434261	0.199541	4632.629395
4094.321153	1.395190	0.199541	6066.885254
4094.322219	1.356540	0.199541	7512.957520
4094.323098	1.324200	0.199541	8676.929687
4094.324014	0.758324	0.199541	9371.554687
4094.325100	0.101521	0.199541	9481.806641
4094.326051	0.097452	0.199541	9574.483398
4094.326918	0.097408	0.199541	9658.936523
4094.327943	0.097603	0.199541	9758.979492
4094.328972	0.097485	0.199541	9859.291992
4094.329864	0.097566	0.199541	9946.320312
4094.330816	0.097408	0.199541	10039.052734
4094.331858	0.097496	0.199541	10140.643555
4094.332797	0.097493	0.199541	10232.189453
4094.333660	0.097599	0.199541	10316.416992
4095.329243	1.022472	0.205193	453.977539
4095.330130	1.476504	0.205193	1763.636597
4095.330996	1.473995	0.205193	3040.116699
4095.332101	1.434943	0.205193	4625.728516
4095.332987	1.400376	0.205193	5866.461914
4095.333849	1.367754	0.205193	7045.465820
4095.334879	1.331012	0.205193	8416.408203
4095.335861	0.934794	0.205193	9334.375977
4095.336736	0.126222	0.205193	9444.820312
4095.337606	0.097397	0.205193	9529.555664
4095.338726	0.097449	0.205193	9638.698242
4095.339623	0.097335	0.205193	9726.007812
4095.340485	0.097365	0.205193	9809.935547
4095.341548	0.097474	0.205193	9913.550781
4095.342513	0.097365	0.205193	10007.507812
4095.343389	0.097383	0.205193	10092.815430
4095.344250	0.097423	0.205193	10176.696289
4095.345353	0.097379	0.205193	10284.105469
4096.384518	1.064033	0.203026	529.888489
4096.385534	1.483927	0.203026	2037.558350
4096.386435	1.468271	0.203026	3360.470947
4096.387412	1.431094	0.203026	4758.649414
4096.388480	1.390280	0.203026	6243.467773
4096.389400	1.355786	0.203026	7490.791016
4096.390269	1.324413	0.203026	8641.706055
4096.391374	0.585428	0.203026	9288.604492
4096.392334	0.099236	0.203026	9383.871094
4096.393218	0.097288	0.203026	9469.873047
4096.394249	0.097555	0.203026	9570.452148
4096.395298	0.097529	0.203026	9672.760742
4096.396176	0.097449	0.203026	9758.320312
4096.397044	0.097500	0.203026	9842.950195
4096.398165	0.097474	0.203026	9952.218750
4096.399121	0.097452	0.203026	10045.382812
4096.399982	0.097438	0.203026	10129.276367
4096.401004	0.097515	0.203026	10228.936523
4097.398280	1.061627	0.207976	529.752014
4097.399201	1.481338	0.207976	1894.064209
4097.400067	1.472355	0.207976	3169.123291
4097.401152	1.431870	0.207976	4722.702148
4097.402150	1.393411	0.207976	6113.326172
4097.403042	1.360855	0.207976	7327.208496
4097.404041	1.326079	0.207976	8651.960937
4097.405111	0.622427	0.207976	9317.958008
4097.406005	0.101616	0.207976	9408.802734
4097.406863	0.097518	0.207976	9492.473633
4097.407962	0.097562	0.207976	9599.694336
4097.408947	0.097566	0.207976	9695.796875
4097.409828	0.097460	0.207976	9781.659180
4097.410816	0.097588	0.207976	9878.076172
4097.411876	0.097489	0.207976	9981.414062
4097.412752	0.097441	0.207976	10066.772461
4097.413631	0.097365	0.207976	10152.355469
4097.414711	0.097504	0.207976	10257.659180
4098.453434	1.016331	0.202272	431.940491
4098.454543	1.482905	0.202272	2076.482422
4098.455516	1.465210	0.202272	3502.131836
4098.456388	1.431273	0.202272	4750.202148
4098.457460	1.390188	0.202272	6240.483398
4098.458511	1.351992	0.202272	7661.427246
4098.459404	1.320824	0.202272	8840.922852
4098.460341	0.632776	0.202272	9433.833984
4098.461418	0.099027	0.202272	9540.486328
4098.462364	0.097313	0.202272	9632.544922
4098.463227	0.097438	0.202272	9716.633789
4098.464291	0.097522	0.202272	9820.397461
4098.465296	0.097394	0.202272	9918.278320
4098.466175	0.097357	0.202272	10003.855469
4098.467152	0.097471	0.202272	10099.083984
4098.468196	0.097500	0.202272	10200.874023
4098.469112	0.097372	0.202272	10290.066406
4098.469967	0.097427	0.202272	10373.366211
4099.469020	1.029763	0.206140	459.274384
4099.469885	1.475193	0.206140	1735.316284
4099.470975	1.468590	0.206140	3336.079590
4099.471979	1.430087	0.206140	4771.886719
4099.472859	1.396088	0.206140	6000.443848
4099.473857	1.360067	0.206140	7357.791016
4099.474908	1.322732	0.206140	8747.982422
4099.475814	0.714485	0.206140	9395.305664
4099.476671	0.106985	0.206140	9486.991211
4099.477763	0.097430	0.206140	9593.384766
4099.478716	0.097354	0.206140	9686.163086
4099.479587	0.097412	0.206140	9771.008789
4099.480595	0.097467	0.206140	9869.255859
4099.481648	0.097478	0.206140	9971.900391
4099.482540	0.097361	0.206140	10058.746094
4099.483420	0.097452	0.206140	10144.503906
4099.484536	0.097533	0.206140	10253.350586
4099.485486	0.097354	0.206140	10345.835937
4100.520761	1.059518	0.204303	585.913391
4100.521779	1.484667	0.204303	2097.304199
4100.522667	1.466916	0.204303	3399.926025
4100.523529	1.432434	0.204303	4634.684082
4100.524590	1.392550	0.204303	6112.179687
4100.525524	1.358115	0.204303	7380.659180
4100.526407	1.326995	0.204303	8552.395508
4100.527391	0.790822	0.204303	9330.563477
4100.528414	0.103030	0.204303	9435.962891
4100.529301	0.097408	0.204303	9522.364258
4100.530161	0.097386	0.204303	9606.116211
4100.531241	0.097496	0.204303	9711.412109
4100.532181	0.097482	0.204303	9803.044922
4100.533043	0.097551	0.204303	9887.133789
4100.534119	0.097518	0.204303	9992.063477
4100.535126	0.097405	0.204303	10090.150391
4100.536003	0.097427	0.204303	10175.593750
4100.536988	0.097573	0.204303	10271.703125
4101.540275	1.011152	0.205032	424.683990
4101.541395	1.482803	0.205032	2085.423096
4101.542296	1.467224	0.205032	3407.392090
4101.543167	1.431870	0.205032	4654.550781
4101.544307	1.390093	0.205032	6239.256836
4101.545275	1.355035	0.205032	7550.931152
4101.546154	1.324248	0.205032	8714.945312
4101.547196	0.601110	0.205032	9341.301758
4101.548233	0.099111	0.205032	9444.080078
4101.549123	0.097518	0.205032	9530.871094
4101.550067	0.097493	0.205032	9622.904297
4101.551138	0.097610	0.205032	9727.444336
4101.552081	0.097493	0.205032	9819.379883
4101.552942	0.097537	0.205032	9903.359375
4101.554016	0.097595	0.205032	10008.176758
4101.555012	0.097537	0.205032	10105.323242
4101.555902	0.097401	0.205032	10192.009766
4101.556861	0.097584	0.205032	10285.592773
4102.589372	0.994178	0.205688	423.520020
4102.590397	1.479397	0.205688	1939.901855
4102.591462	1.465298	0.205688	3500.444092
4102.592343	1.430698	0.205688	4760.889160
4102.593294	1.394125	0.205688	6086.701660
4102.594375	1.354493	0.205688	7550.909180
4102.595317	1.321432	0.205688	8795.698242
4102.596195	0.696980	0.205688	9407.646484
4102.597263	0.100565	0.205688	9515.049805
4102.598271	0.097467	0.205688	9613.296875
4102.599158	0.097408	0.205688	9699.698242
4102.600138	0.097522	0.205688	9795.269531
4102.601205	0.097471	0.205688	9899.270508
4102.602122	0.097537	0.205688	9988.711914
4102.602986	0.097496	0.205688	10072.949219
4102.604074	0.097562	0.205688	10179.096680
4102.605065	0.097408	0.205688	10275.628906
4102.605957	0.097423	0.205688	10362.530273
4103.610894	1.064740	0.207904	536.628906
4103.611828	1.482056	0.207904	1920.868896
4103.612691	1.471853	0.207904	3191.078125
4103.613761	1.431621	0.207904	4722.912598
4103.614784	1.392403	0.207904	6147.341309
4103.615683	1.359576	0.207904	7369.600586
4103.616652	1.325592	0.207904	8654.099609
4103.617702	0.634541	0.207904	9320.367187
4103.618619	0.101565	0.207904	9413.501953
4103.619477	0.097467	0.207904	9497.128906
4103.620555	0.097606	0.207904	9602.348633
4103.621549	0.097485	0.207904	9699.249023
4103.622432	0.097460	0.207904	9785.305664
4103.623430	0.097636	0.207904	9882.746094
4103.624488	0.097489	0.207904	9985.889648
4103.625385	0.097474	0.207904	10073.324219
4103.626244	0.097482	0.207904	10157.060547
4103.627341	0.097511	0.207904	10264.030273
4104.656578	1.014569	0.208919	439.308441
4104.657662	1.482305	0.208919	2046.126709
4104.658565	1.468019	0.208919	3371.747803
4104.659443	1.434631	0.208919	4631.354004
4104.660459	1.396029	0.208919	6049.719727
4104.661466	1.358090	0.208919	7417.315918
4104.662358	1.326859	0.208919	8600.874023
4104.663223	0.893064	0.208919	9373.374023
4104.664291	0.107732	0.208919	9488.431641
4104.665208	0.097375	0.208919	9577.724609
4104.666086	0.097548	0.208919	9663.371094
4104.667060	0.097573	0.208919	9758.407227
4104.668070	0.097515	0.208919	9856.897461
4104.668963	0.097507	0.208919	9943.971680
4104.669937	0.097584	0.208919	10039.018555
4104.670982	0.097679	0.208919	10141.093750
4104.671893	0.097379	0.208919	10229.806641
4104.672751	0.097551	0.208919	10313.505859
4105.680171	1.055402	0.209793	568.861450
4105.681217	1.484689	0.209793	2121.845947
4105.682104	1.466342	0.209793	3422.490967
4105.682967	1.432324	0.209793	4658.586914
4105.684020	1.392151	0.209793	6124.521484
4105.684974	1.357423	0.209793	7419.502930
4105.685851	1.326031	0.209793	8582.432617
4105.686911	0.672363	0.209793	9295.137695
4105.687928	0.100042	0.209793	9396.879883
4105.688821	0.097485	0.209793	9483.934570
4105.689772	0.097515	0.209793	9576.670898
4105.690833	0.097540	0.209793	9680.161133
4105.691757	0.097518	0.209793	9770.267578
4105.692623	0.097463	0.209793	9854.670898
4105.693715	0.097577	0.209793	9961.224609
4105.694707	0.097419	0.209793	10057.864258
4105.695598	0.097427	0.209793	10144.671875
4105.696586	0.097540	0.209793	10241.041992
4106.725812	0.998804	0.208291	417.499939
4106.726894	1.481741	0.208291	2020.743408
4106.727912	1.464163	0.208291	3511.260742
4106.728812	1.429596	0.208291	4797.896973
4106.729810	1.391327	0.208291	6186.441406
4106.730876	1.352996	0.208291	7628.734863
4106.731780	1.320293	0.208291	8822.279297
4106.732650	0.670624	0.208291	9405.721680
4106.733761	0.099474	0.208291	9516.237305
4106.734730	0.097452	0.208291	9610.668945
4106.735603	0.097361	0.208291	9695.665039
4106.736649	0.097518	0.208291	9797.668945
4106.737678	0.097463	0.208291	9897.958984
4106.738567	0.097379	0.208291	9984.529297
4106.739490	0.097485	0.208291	10074.507812
4106.740552	0.097606	0.208291	10178.166016
4106.741493	0.097372	0.208291	10269.792969
4106.742353	0.097474	0.208291	10353.621094
4107.748298	1.013950	0.212593	445.124146
4107.749162	1.474065	0.212593	1718.716309
4107.750282	1.467968	0.212593	3362.840088
4107.751263	1.430522	0.212593	4766.182617
4107.752127	1.397117	0.212593	5973.291504
4107.753207	1.357639	0.212593	7439.541992
4107.754249	1.321014	0.212593	8816.039062
4107.755138	0.671005	0.212593	9412.562500
4107.756093	0.104637	0.212593	9512.491211
4107.757149	0.097489	0.212593	9615.439453
4107.758089	0.097419	0.212593	9707.013672
4107.758945	0.097412	0.212593	9790.398437
4107.759990	0.097515	0.212593	9892.300781
4107.761013	0.097467	0.212593	9992.009766
4107.761907	0.097438	0.212593	10079.119141
4107.762868	0.097485	0.212593	10172.802734
4107.763923	0.097489	0.212593	10275.653320
4107.764849	0.097452	0.212593	10365.894531
4108.796348	1.000269	0.207924	427.114685
4108.797413	1.480997	0.207924	2004.376709
4108.798299	1.469864	0.207924	3306.676758
4108.799172	1.436484	0.207924	4560.727539
4108.800059	1.400738	0.207924	5803.182617
4108.801122	1.362697	0.207924	7251.729004
4108.801997	1.331327	0.207924	8416.639648
4108.802882	1.062198	0.207924	9356.685547
4108.803878	0.140402	0.207924	9496.525391
4108.804815	0.097412	0.207924	9587.800781
4108.805740	0.097467	0.207924	9677.958008
4108.806602	0.097515	0.207924	9762.015625
4108.807649	0.097507	0.207924	9864.105469
4108.808544	0.097427	0.207924	9951.302734
4108.809421	0.097419	0.207924	10036.739258
4108.810429	0.097559	0.207924	10135.078125
4108.811368	0.097434	0.207924	10226.568359
4108.812237	0.097441	0.207924	10311.245117
4109.816886	1.060979	0.213757	582.477478
4109.817833	1.483590	0.213757	1987.437256
4109.818756	1.467960	0.213757	3342.364502
4109.819642	1.433954	0.213757	4612.847656
4109.820672	1.394846	0.213757	6049.539062
4109.821580	1.361334	0.213757	7285.630371
4109.822446	1.330404	0.213757	8437.759766
4109.823498	0.811461	0.213757	9291.416992
4109.824460	0.106293	0.213757	9393.670898
4109.825336	0.097559	0.213757	9479.131836
4109.826219	0.097577	0.213757	9565.291992
4109.827314	0.097643	0.213757	9672.210937
4109.828194	0.097423	0.213757	9757.943359
4109.829052	0.097555	0.213757	9841.645508
4109.830091	0.097665	0.213757	9943.119141
4109.831055	0.097529	0.213757	10037.137695
4109.831919	0.097456	0.213757	10121.339844
4109.832787	0.097474	0.213757	10205.947266
4110.866695	1.065084	0.210180	536.802429
4110.867655	1.482601	0.210180	1960.099609
4110.868526	1.471194	0.210180	3241.509277
4110.869611	1.429735	0.210180	4792.771973
4110.870653	1.390031	0.210180	6241.183594
4110.871560	1.356749	0.210180	7471.754883
4110.872523	1.323032	0.210180	8745.834961
4110.873585	0.539835	0.210180	9319.139648
4110.874515	0.099280	0.210180	9411.469727
4110.875374	0.097471	0.210180	9495.197266
4110.876442	0.097639	0.210180	9599.475586
4110.877442	0.097533	0.210180	9697.008789
4110.878327	0.097394	0.210180	9783.202148
4110.879334	0.097584	0.210180	9881.469727
4110.880382	0.097452	0.210180	9983.599609
4110.881285	0.097452	0.210180	10071.599609
4110.882144	0.097592	0.210180	10155.430664
4110.883241	0.097698	0.210180	10262.605469
4111.884243	1.015426	0.217447	450.849152
4111.885108	1.474409	0.217447	1726.213135
4111.886164	1.469978	0.217447	3278.509766
4111.887194	1.430761	0.217447	4752.193359
4111.888084	1.396447	0.217447	5995.030762
4111.889037	1.361404	0.217447	7292.448730
4111.890104	1.323625	0.217447	8704.756836
4111.891040	0.721721	0.217447	9380.288086
4111.891894	0.107139	0.217447	9471.784180
4111.892970	0.097526	0.217447	9576.721680
4111.893977	0.097474	0.217447	9674.877930
4111.894849	0.097365	0.217447	9759.779297
4111.895812	0.097599	0.217447	9853.766602
4111.896878	0.097544	0.217447	9957.748047
4111.897800	0.097460	0.217447	10047.605469
4111.898665	0.097537	0.217447	10131.974609
4111.899759	0.097526	0.217447	10238.667969
4111.900757	0.097419	0.217447	10335.892578
4112.936471	1.068098	0.208681	538.321411
4112.937426	1.482469	0.208681	1954.079712
4112.938293	1.471417	0.208681	3229.798340
4112.939358	1.431017	0.208681	4753.831055
4112.940390	1.391338	0.208681	6189.691895
4112.941286	1.358254	0.208681	7406.687988
4112.942229	1.324882	0.208681	8656.050781
4112.943292	0.626118	0.208681	9321.614258
4112.944226	0.100840	0.208681	9415.798828
4112.945089	0.097471	0.208681	9499.916016
4112.946162	0.097654	0.208681	9604.698242
4112.947173	0.097603	0.208681	9703.374023
4112.948050	0.097493	0.208681	9788.875000
4112.949005	0.097573	0.208681	9882.057617
4112.950073	0.097610	0.208681	9986.304687
4112.950980	0.097533	0.208681	10074.766602
4112.951887	0.097504	0.208681	10163.202148
4112.952762	0.097515	0.208681	10248.527344
4113.953552	1.060690	0.217467	538.830383
4113.954430	1.479756	0.217467	1838.056152
4113.955312	1.471996	0.217467	3136.356445
4113.956437	1.430585	0.217467	4745.764160
4113.957405	1.393425	0.217467	6094.599609
4113.958277	1.361356	0.217467	7281.702148
4113.959348	1.323527	0.217467	8699.199219
4113.960386	0.588124	0.217467	9309.671875
4113.961281	0.100913	0.217467	9399.989258
4113.962247	0.097566	0.217467	9494.238281
4113.963280	0.097555	0.217467	9595.012695
4113.964208	0.097500	0.217467	9685.493164
4113.965141	0.097496	0.217467	9776.457031
4113.966001	0.097570	0.217467	9860.367187
4113.967059	0.097482	0.217467	9963.502930
4113.967938	0.097419	0.217467	10049.134766
4113.968805	0.097467	0.217467	10133.638672
4113.969755	0.097577	0.217467	10226.336914
4115.006243	1.087130	0.209527	558.784851
4115.007211	1.483462	0.209527	1994.775879
4115.008076	1.470461	0.209527	3266.725098
4115.009175	1.428812	0.209527	4836.989746
4115.010215	1.388954	0.209527	6281.501953
4115.011101	1.355925	0.209527	7482.851562
4115.012052	1.322798	0.209527	8740.832031
4115.013119	0.541520	0.209527	9318.633789
4115.014057	0.099357	0.209527	9411.830078
4115.014920	0.097500	0.209527	9495.972656
4115.015975	0.097679	0.209527	9599.024414
4115.016984	0.097599	0.209527	9697.501953
4115.017860	0.097496	0.209527	9782.909180
4115.018834	0.097577	0.209527	9877.949219
4115.019913	0.097566	0.209527	9983.222656
4115.020813	0.097493	0.209527	10070.965820
4115.021678	0.097515	0.209527	10155.316406
4115.022760	0.097566	0.209527	10260.882812
4116.021435	0.999100	0.218696	426.615845
4116.022477	1.480796	0.218696	1969.605103
4116.023505	1.465137	0.218696	3475.765625
4116.024402	1.430709	0.218696	4759.111816
4116.025382	1.393341	0.218696	6124.585937
4116.026444	1.354135	0.218696	7562.676758
4116.027367	1.321740	0.218696	8782.642578
4116.028248	0.705425	0.218696	9404.122070
4116.029333	0.100316	0.218696	9512.964844
4116.030327	0.097621	0.218696	9610.000000
4116.031220	0.097500	0.218696	9697.067383
4116.032201	0.097628	0.218696	9792.840820
4116.033247	0.097614	0.218696	9894.944336
4116.034154	0.097625	0.218696	9983.490234
4116.035017	0.097606	0.218696	10067.724609
4116.036129	0.097720	0.218696	10176.388672
4116.037100	0.097441	0.218696	10271.003906
4116.037958	0.097562	0.218696	10354.711914
4117.076494	1.062294	0.209209	536.458313
4117.077389	1.480305	0.209209	1861.331543
4117.078252	1.471890	0.209209	3131.572266
4117.079374	1.430489	0.209209	4736.581543
4117.080353	1.393041	0.209209	6100.368164
4117.081223	1.361111	0.209209	7284.534668
4117.082269	1.324193	0.209209	8669.640625
4117.083316	0.613564	0.209209	9312.042969
4117.084211	0.101528	0.209209	9402.911133
4117.085142	0.097445	0.209209	9493.632812
4117.086201	0.097544	0.209209	9596.931641
4117.087139	0.097463	0.209209	9688.352539
4117.087997	0.097504	0.209209	9772.010742
4117.089052	0.097614	0.209209	9874.993164
4117.090071	0.097412	0.209209	9974.255859
4117.090953	0.097555	0.209209	10060.298828
4117.091917	0.097522	0.209209	10154.309570
4117.092979	0.097474	0.209209	10257.827148
4118.090687	0.994515	0.217318	421.674530
4118.091571	1.472662	0.217318	1723.508057
4118.092682	1.467986	0.217318	3354.440186
4118.093632	1.431768	0.217318	4714.619141
4118.094493	1.398043	0.217318	5918.334473
4118.095524	1.359639	0.217318	7320.122070
4118.096590	1.322831	0.217318	8730.259766
4118.097477	0.749883	0.217318	9395.406250
4118.098436	0.108245	0.217318	9499.212891
4118.099498	0.097526	0.217318	9602.785156
4118.100424	0.097518	0.217318	9693.086914
4118.101291	0.097518	0.217318	9777.635742
4118.102358	0.097657	0.217318	9881.835937
4118.103374	0.097500	0.217318	9980.895508
4118.104264	0.097551	0.217318	10067.715820
4118.105231	0.097668	0.217318	10162.161133
4118.106275	0.097603	0.217318	10264.058594
4118.107195	0.097529	0.217318	10353.785156
