time (s)	coil I (A)	last det (V)	int current (uC)
6764.048438	1.103709	0.121787	573.928406
6764.049340	1.483532	0.121787	1912.073975
6764.050207	1.471436	0.121787	3187.808594
6764.051362	1.429534	0.121787	4838.919922
6764.052337	1.392407	0.121787	6196.517090
6764.053213	1.359254	0.121787	7387.223633
6764.054276	1.322333	0.121787	8792.863281
6764.055310	1.287594	0.121787	10124.235352
6764.056204	1.258250	0.121787	11249.110352
6764.057151	1.229253	0.121787	12413.212891
6764.058212	0.603816	0.121787	13053.861328
6764.059144	0.100884	0.121787	13147.884766
6764.060005	0.097383	0.121787	13231.731445
6764.061059	0.097533	0.121787	13334.531250
6764.062072	0.097485	0.121787	13433.284180
6764.062949	0.097467	0.121787	13518.762695
6764.063933	0.097504	0.121787	13614.706055
6764.064979	0.097522	0.121787	13716.713867
6764.065893	0.097555	0.121787	13805.878906
6764.066751	0.097489	0.121787	13889.524414
6764.067819	0.097496	0.121787	13993.650391
6765.066685	1.010632	0.149397	427.497467
6765.067789	1.483363	0.149397	2065.130371
6765.068799	1.464983	0.149397	3544.763184
6765.069685	1.430629	0.149397	4812.300293
6765.070694	1.392451	0.149397	6217.283691
6765.071764	1.353508	0.149397	7665.537598
6765.072650	1.321765	0.149397	8836.621094
6765.073540	1.290311	0.149397	9984.998047
6765.074657	1.255415	0.149397	11387.296875
6765.075595	1.226049	0.149397	12537.330078
6765.076470	0.704799	0.149397	13154.029297
6765.077501	0.102213	0.149397	13259.411133
6765.078523	0.097518	0.149397	13359.075195
6765.079411	0.097559	0.149397	13445.707031
6765.080371	0.097610	0.149397	13539.412109
6765.081436	0.097518	0.149397	13643.269531
6765.082363	0.097529	0.149397	13733.678711
6765.083229	0.097614	0.149397	13818.211914
6765.084301	0.097489	0.149397	13922.719727
6765.085314	0.097452	0.149397	14021.439453
6765.086206	0.097449	0.149397	14108.363281
6766.120888	1.014053	0.123664	427.930267
6766.121950	1.483542	0.123664	2003.452393
6766.122839	1.471329	0.123664	3311.464111
6766.123706	1.437843	0.123664	4558.074219
6766.124702	1.399600	0.123664	5952.075195
6766.125641	1.364121	0.123664	7232.984863
6766.126523	1.333110	0.123664	8408.788086
6766.127499	1.299986	0.123664	9677.575195
6766.128525	1.265984	0.123664	10976.474609
6766.129417	1.237961	0.123664	12080.736328
6766.130285	1.061012	0.123664	13001.694336
6766.131373	0.143635	0.123664	13157.969727
6766.132310	0.097350	0.123664	13249.186523
6766.133182	0.097456	0.123664	13334.167969
6766.134168	0.097504	0.123664	13430.306641
6766.135165	0.097493	0.123664	13527.506836
6766.136048	0.097427	0.123664	13613.534180
6766.136906	0.097485	0.123664	13697.176758
6766.137996	0.097540	0.123664	13803.496094
6766.138921	0.097438	0.123664	13893.625977
6766.139780	0.097529	0.123664	13977.403320
6767.132109	1.007695	0.158887	443.385925
6767.132979	1.475420	0.158887	1727.001221
6767.133842	1.477452	0.158887	3002.042480
6767.134899	1.439037	0.158887	4523.104492
6767.135785	1.404126	0.158887	5767.160156
6767.136666	1.371031	0.158887	6975.039062
6767.137580	1.337549	0.158887	8197.558594
6767.138602	1.303004	0.158887	9529.228516
6767.139502	1.272799	0.158887	10674.748047
6767.140399	1.244777	0.158887	11791.312500
6767.141407	1.131251	0.158887	12931.613281
6767.142342	0.211908	0.158887	13129.747070
6767.143227	0.097324	0.158887	13215.878906
6767.144217	0.097526	0.158887	13312.429687
6767.145201	0.097460	0.158887	13408.330078
6767.146086	0.097452	0.158887	13494.575195
6767.146949	0.097496	0.158887	13578.714844
6767.148047	0.097511	0.158887	13685.782227
6767.148954	0.097401	0.158887	13774.125000
6767.149821	0.097386	0.158887	13858.558594
6767.150822	0.097507	0.158887	13956.163086
6768.198599	1.002909	0.108449	435.262482
6768.199470	1.475394	0.108449	1720.330933
6768.200498	1.471981	0.108449	3233.527832
6768.201543	1.432434	0.108449	4730.421387
6768.202434	1.397999	0.108449	5976.038574
6768.203396	1.362737	0.108449	7286.991211
6768.204458	1.325160	0.108449	8694.310547
6768.205392	1.293157	0.108449	9902.119141
6768.206270	1.263981	0.108449	11011.894531
6768.207349	1.230817	0.108449	12339.945312
6768.208357	0.720238	0.108449	13065.945312
6768.209249	0.106388	0.108449	13160.843750
6768.210228	0.097449	0.108449	13256.246094
6768.211280	0.097548	0.108449	13358.866211
6768.212197	0.097332	0.108449	13448.119141
6768.213060	0.097504	0.108449	13532.264648
6768.214146	0.097511	0.108449	13638.161133
6768.215124	0.097390	0.108449	13733.408203
6768.216002	0.097456	0.108449	13818.974609
6768.217005	0.097562	0.108449	13916.829102
6768.218055	0.097489	0.108449	14019.192383
6769.200722	1.130453	0.150380	654.532227
6769.201718	1.486432	0.150380	2135.018555
6769.202609	1.467773	0.150380	3442.804687
6769.203472	1.432903	0.150380	4679.399902
6769.204572	1.392576	0.150380	6211.233398
6769.205469	1.358833	0.150380	7430.106445
6769.206344	1.328276	0.150380	8592.348633
6769.207358	1.293593	0.150380	9904.051758
6769.208353	1.260703	0.150380	11158.451172
6769.209257	1.232794	0.150380	12272.897461
6769.210264	0.788185	0.150380	13066.599609
6769.211320	0.104875	0.150380	13177.347656
6769.212208	0.097430	0.150380	13263.866211
6769.213090	0.097507	0.150380	13349.867187
6769.214200	0.097617	0.150380	13458.222656
6769.215155	0.097467	0.150380	13551.303711
6769.216027	0.097529	0.150380	13636.349609
6769.217064	0.097646	0.150380	13737.609375
6769.218098	0.097474	0.150380	13838.397461
6769.218981	0.097430	0.150380	13924.428711
6769.219911	0.097522	0.150380	14015.124023
6770.264072	1.066934	0.124155	531.332886
6770.265029	1.483810	0.124155	1951.338867
6770.265901	1.472347	0.124155	3235.225830
6770.266939	1.432811	0.124155	4722.483887
6770.267977	1.393114	0.124155	6168.536133
6770.268876	1.359459	0.124155	7390.689941
6770.269826	1.326757	0.124155	8651.108398
6770.270881	1.290366	0.124155	10012.444336
6770.271817	1.259861	0.124155	11191.673828
6770.272682	1.232468	0.124155	12257.758789
6770.273774	0.707197	0.124155	13030.018555
6770.274776	0.102059	0.124155	13132.282227
6770.275654	0.097489	0.124155	13217.877930
6770.276622	0.097628	0.124155	13312.381836
6770.277668	0.097515	0.124155	13414.381836
6770.278581	0.097496	0.124155	13503.396484
6770.279438	0.097518	0.124155	13586.969727
6770.280484	0.097581	0.124155	13689.039062
6770.281492	0.097500	0.124155	13787.319336
6770.282376	0.097496	0.124155	13873.505859
6770.283354	0.097603	0.124155	13968.960937
6771.266601	1.078305	0.163669	580.127808
6771.267672	1.485352	0.163669	2170.939453
6771.268583	1.465269	0.163669	3505.799316
6771.269453	1.430090	0.163669	4749.978027
6771.270564	1.388943	0.163669	6293.093750
6771.271542	1.353296	0.163669	7616.617187
6771.272407	1.322659	0.163669	8760.716797
6771.273504	1.286166	0.163669	10171.640625
6771.274531	1.253232	0.163669	11458.709961
6771.275423	1.225247	0.163669	12551.629883
6771.276374	0.614601	0.163669	13136.115234
6771.277436	0.099415	0.163669	13241.694336
6771.278365	0.097471	0.163669	13332.244141
6771.279224	0.097537	0.163669	13416.028320
6771.280280	0.097592	0.163669	13519.084961
6771.281300	0.097408	0.163669	13618.441406
6771.282175	0.097445	0.163669	13703.706055
6771.283128	0.097544	0.163669	13796.665039
6771.284199	0.097471	0.163669	13901.056641
6771.285106	0.097430	0.163669	13989.425781
6771.285976	0.097434	0.163669	14074.193359
6772.335561	1.008560	0.113742	435.697754
6772.336570	1.478112	0.113742	1927.112305
6772.337607	1.467279	0.113742	3448.680664
6772.338506	1.432255	0.113742	4736.277344
6772.339370	1.397347	0.113742	5943.585449
6772.340480	1.357969	0.113742	7450.930664
6772.341450	1.324387	0.113742	8735.585937
6772.342315	1.294321	0.113742	9855.173828
6772.343378	1.259901	0.113742	11194.448242
6772.344427	1.227491	0.113742	12482.086914
6772.345308	0.743148	0.113742	13136.800781
6772.346227	0.109966	0.113742	13237.859375
6772.347283	0.097372	0.113742	13340.683594
6772.348238	0.097379	0.113742	13433.680664
6772.349103	0.097434	0.113742	13517.960937
6772.350114	0.097500	0.113742	13616.533203
6772.351148	0.097412	0.113742	13717.257812
6772.352034	0.097430	0.113742	13803.581055
6772.352975	0.097562	0.113742	13895.386719
6772.354025	0.097500	0.113742	13997.761719
6772.354970	0.097368	0.113742	14089.774414
6773.334984	1.004374	0.163194	437.906982
6773.335849	1.474574	0.163194	1713.413452
6773.336940	1.470040	0.163194	3317.227539
6773.337942	1.431786	0.163194	4751.876953
6773.338815	1.397629	0.163194	5972.007324
6773.339807	1.361217	0.163194	7322.334473
6773.340869	1.323812	0.163194	8728.222656
6773.341765	1.293248	0.163194	9886.972656
6773.342640	1.263109	0.163194	10992.193359
6773.343756	1.229564	0.163194	12364.386719
6773.344729	0.742233	0.163194	13086.579102
6773.345594	0.109600	0.163194	13181.382812
6773.346626	0.097460	0.163194	13281.960937
6773.347663	0.097456	0.163194	13383.022461
6773.348555	0.097405	0.163194	13469.907227
6773.349478	0.097529	0.163194	13559.926758
6773.350555	0.097559	0.163194	13664.997070
6773.351506	0.097397	0.163194	13757.622070
6773.352368	0.097408	0.163194	13841.587891
6773.353429	0.097537	0.163194	13945.074219
6773.354435	0.097463	0.163194	14043.122070
6774.408143	1.009003	0.118052	447.997192
6774.409011	1.475178	0.118052	1728.451904
6774.410077	1.470099	0.118052	3295.577148
6774.411088	1.431504	0.118052	4742.827637
6774.411974	1.397256	0.118052	5980.796387
6774.412963	1.361104	0.118052	7326.927734
6774.414041	1.323116	0.118052	8753.247070
6774.414949	1.291835	0.118052	9926.233398
6774.415820	1.262615	0.118052	11025.970703
6774.416925	1.229026	0.118052	12384.043945
6774.417903	0.718594	0.118052	13086.829102
6774.418765	0.107743	0.118052	13179.703125
6774.419826	0.097412	0.118052	13283.057617
6774.420875	0.097478	0.118052	13385.312500
6774.421766	0.097372	0.118052	13472.070312
6774.422643	0.097412	0.118052	13557.500977
6774.423565	0.097460	0.118052	13647.358398
6774.424559	0.097423	0.118052	13744.197266
6774.425485	0.097354	0.118052	13834.346680
6774.426353	0.097397	0.118052	13918.887695
6774.427380	0.097493	0.118052	14019.012695
6775.406103	1.057060	0.162388	547.557312
6775.407154	1.484246	0.162388	2107.499512
6775.408079	1.466169	0.162388	3463.706299
6775.408945	1.431746	0.162388	4703.598145
6775.410034	1.391107	0.162388	6218.513672
6775.411029	1.354592	0.162388	7566.333008
6775.411905	1.323234	0.162388	8725.485352
6775.412921	1.289799	0.162388	10035.920898
6775.413983	1.255540	0.162388	11369.303711
6775.414878	1.226972	0.162388	12467.443359
6775.415745	0.725142	0.162388	13096.140625
6775.416858	0.101704	0.162388	13209.336914
6775.417816	0.097357	0.162388	13302.605469
6775.418671	0.097493	0.162388	13385.961914
6775.419744	0.097632	0.162388	13490.720703
6775.420779	0.097485	0.162388	13591.618164
6775.421666	0.097449	0.162388	13678.055664
6775.422596	0.097504	0.162388	13768.734375
6775.423659	0.097518	0.162388	13872.396484
6775.424603	0.097471	0.162388	13964.409180
6775.425466	0.097460	0.162388	14048.516602
6776.477220	1.082827	0.122918	557.656006
6776.478115	1.481331	0.122918	1883.446899
6776.478987	1.473483	0.122918	3168.323730
6776.479850	1.438817	0.122918	4410.022949
6776.480925	1.399208	0.122918	5914.171387
6776.481809	1.366370	0.122918	7122.041992
6776.482686	1.333334	0.122918	8291.375977
6776.483802	1.296932	0.122918	9738.751953
6776.484724	1.266541	0.122918	10906.501953
6776.485607	1.238738	0.122918	12000.307617
6776.486608	0.986089	0.122918	12987.382812
6776.487611	0.128767	0.122918	13116.536133
6776.488506	0.097438	0.122918	13203.743164
6776.489363	0.097401	0.122918	13287.215820
6776.490465	0.097507	0.122918	13394.668945
6776.491381	0.097419	0.122918	13483.905273
6776.492256	0.097416	0.122918	13569.144531
6776.493267	0.097570	0.122918	13667.787109
6776.494257	0.097449	0.122918	13764.261719
6776.495131	0.097445	0.122918	13849.428711
6776.496125	0.097548	0.122918	13946.390625
6777.477572	1.003623	0.159846	435.572388
6777.478443	1.474801	0.159846	1720.124023
6777.479458	1.472051	0.159846	3214.255615
6777.480523	1.432061	0.159846	4739.400391
6777.481415	1.397066	0.159846	5985.583008
6777.482333	1.362788	0.159846	7236.622559
6777.483428	1.324438	0.159846	8686.882812
6777.484384	1.292267	0.159846	9922.290039
6777.485260	1.263351	0.159846	11028.985352
6777.486318	1.230337	0.159846	12330.681641
6777.487353	0.695852	0.159846	13050.888672
6777.488245	0.105648	0.159846	13145.126953
6777.489117	0.097397	0.159846	13230.057617
6777.490082	0.097581	0.159846	13324.222656
6777.491048	0.097397	0.159846	13418.308594
6777.491967	0.097412	0.159846	13507.830078
6777.492832	0.097434	0.159846	13592.110352
6777.493868	0.097419	0.159846	13693.037109
6777.494740	0.097427	0.159846	13777.993164
6777.495611	0.097474	0.159846	13862.893555
6777.496511	0.097504	0.159846	13950.646484
6778.542659	1.125157	0.120703	631.213318
6778.543725	1.485608	0.120703	2214.871338
6778.544615	1.465027	0.120703	3518.745117
6778.545508	1.429365	0.120703	4795.168457
6778.546620	1.387833	0.120703	6338.438965
6778.547585	1.352710	0.120703	7643.804199
6778.548455	1.322267	0.120703	8794.175781
6778.549510	1.286510	0.120703	10151.443359
6778.550553	1.253049	0.120703	11458.374023
6778.551454	1.224921	0.120703	12562.027344
6778.552425	0.594708	0.120703	13139.489258
6778.553491	0.098727	0.120703	13244.732422
6778.554411	0.097551	0.120703	13334.479492
6778.555274	0.097412	0.120703	13418.545898
6778.556353	0.097628	0.120703	13523.886719
6778.557347	0.097350	0.120703	13620.652344
6778.558223	0.097452	0.120703	13706.020508
6778.559220	0.097507	0.120703	13803.235352
6778.560259	0.097504	0.120703	13904.541992
6778.561159	0.097412	0.120703	13992.212891
6778.562015	0.097430	0.120703	14075.613281
6779.550226	1.064117	0.154589	540.571655
6779.551117	1.481052	0.154589	1860.189087
6779.551994	1.473842	0.154589	3152.748047
6779.553028	1.434785	0.154589	4636.315918
6779.554015	1.396355	0.154589	6014.518555
6779.554899	1.363857	0.154589	7220.168457
6779.555916	1.328247	0.154589	8570.996094
6779.556966	1.292571	0.154589	9928.195312
6779.557851	1.263311	0.154589	11046.224609
6779.558745	1.234054	0.154589	12149.468750
6779.559865	0.764425	0.154589	13005.625000
6779.560818	0.106743	0.154589	13107.351562
6779.561677	0.097438	0.154589	13191.050781
6779.562701	0.097515	0.154589	13290.906250
6779.563729	0.097515	0.154589	13391.151367
6779.564622	0.097419	0.154589	13478.146484
6779.565550	0.097551	0.154589	13568.673828
6779.566619	0.097507	0.154589	13672.909180
6779.567552	0.097416	0.154589	13763.797852
6779.568416	0.097555	0.154589	13848.084961
6779.569473	0.097496	0.154589	13951.138672
6780.609090	1.108912	0.126133	622.099854
6780.610157	1.485469	0.126133	2207.094971
6780.611054	1.465093	0.126133	3521.283203
6780.611927	1.429669	0.126133	4769.384766
6780.613041	1.388602	0.126133	6316.287598
6780.614001	1.353486	0.126133	7615.634277
6780.614867	1.322875	0.126133	8761.244141
6780.615900	1.288125	0.126133	10091.876953
6780.616939	1.254954	0.126133	11395.773437
6780.617822	1.226986	0.126133	12479.202148
6780.618757	0.685909	0.126133	13120.527344
6780.619829	0.100551	0.126133	13228.317383
6780.620756	0.097441	0.126133	13318.645508
6780.621628	0.097544	0.126133	13403.704102
6780.622671	0.097537	0.126133	13505.434570
6780.623698	0.097548	0.126133	13605.616211
6780.624585	0.097405	0.126133	13692.014648
6780.625540	0.097621	0.126133	13785.242187
6780.626594	0.097595	0.126133	13888.107422
6780.627518	0.097445	0.126133	13978.146484
6780.628381	0.097471	0.126133	14062.263672
6781.621692	1.007717	0.166871	427.272125
6781.622791	1.482686	0.166871	2056.743652
6781.623793	1.464642	0.166871	3524.315186
6781.624680	1.430288	0.166871	4792.980469
6781.625686	1.392312	0.166871	6193.646484
6781.626743	1.353893	0.166871	7624.710937
6781.627629	1.322087	0.166871	8796.080078
6781.628515	1.291058	0.166871	9939.958008
6781.629598	1.257129	0.166871	11301.428711
6781.630553	1.227319	0.166871	12473.518555
6781.631419	0.771497	0.166871	13141.634766
6781.632434	0.105948	0.166871	13249.172852
6781.633473	0.097482	0.166871	13350.456055
6781.634361	0.097493	0.166871	13437.029297
6781.635289	0.097526	0.166871	13527.533203
6781.636359	0.097548	0.166871	13631.909180
6781.637302	0.097456	0.166871	13723.810547
6781.638170	0.097511	0.166871	13808.450195
6781.639208	0.097621	0.166871	13909.780273
6781.640218	0.097485	0.166871	14008.240234
6781.641111	0.097460	0.166871	14095.271484
6782.676537	1.102892	0.127120	606.590515
6782.677426	1.482678	0.127120	1924.691406
6782.678299	1.470747	0.127120	3208.653809
6782.679395	1.430369	0.127120	4776.337891
6782.680373	1.392660	0.127120	6138.359375
6782.681254	1.360206	0.127120	7336.701172
6782.682262	1.325171	0.127120	8672.473633
6782.683323	1.289513	0.127120	10040.646484
6782.684222	1.259755	0.127120	11173.166016
6782.685117	1.231036	0.127120	12274.943359
6782.686225	0.670408	0.127120	13017.754883
6782.687178	0.102063	0.127120	13115.020508
6782.688043	0.097441	0.127120	13199.307617
6782.689100	0.097625	0.127120	13302.497070
6782.690119	0.097537	0.127120	13401.886719
6782.691012	0.097515	0.127120	13488.967773
6782.691957	0.097592	0.127120	13581.191406
6782.692997	0.097570	0.127120	13682.664062
6782.693914	0.097441	0.127120	13772.017578
6782.694773	0.097573	0.127120	13855.833008
6782.695829	0.097599	0.127120	13958.897461
6783.691776	1.030071	0.163528	503.704620
6783.692849	1.483876	0.163528	2095.903320
6783.693798	1.465327	0.163528	3486.498779
6783.694665	1.431365	0.163528	4727.492187
6783.695736	1.390734	0.163528	6216.967773
6783.696748	1.353907	0.163528	7587.122070
6783.697640	1.322721	0.163528	8766.989258
6783.698631	1.289227	0.163528	10044.613281
6783.699687	1.254957	0.163528	11369.848633
6783.700608	1.226122	0.163528	12499.106445
6783.701476	0.709706	0.163528	13115.130859
6783.702565	0.101481	0.163528	13225.643555
6783.703544	0.097467	0.163528	13321.063477
6783.704416	0.097460	0.163528	13406.048828
6783.705418	0.097584	0.163528	13503.828125
6783.706474	0.097518	0.163528	13606.807617
6783.707353	0.097456	0.163528	13692.471680
6783.708222	0.097529	0.163528	13777.224609
6783.709323	0.097628	0.163528	13884.712891
6783.710290	0.097434	0.163528	13978.931641
6783.711159	0.097463	0.163528	14063.626953
6784.748005	1.033154	0.125976	482.483032
6784.748896	1.478566	0.125976	1799.885010
6784.749865	1.472845	0.125976	3227.072266
6784.750766	1.437733	0.125976	4522.469727
6784.751643	1.404045	0.125976	5753.817383
6784.752563	1.368995	0.125976	7013.292969
6784.753576	1.333616	0.125976	8364.246094
6784.754500	1.302199	0.125976	9567.477539
6784.755365	1.273012	0.125976	10668.632812
6784.756407	1.240294	0.125976	11961.019531
6784.757317	1.132203	0.125976	12991.324219
6784.758193	0.221393	0.125976	13185.264648
6784.759071	0.097581	0.125976	13270.940430
6784.760129	0.097485	0.125976	13374.080078
6784.761022	0.097474	0.125976	13461.125000
6784.761894	0.097430	0.125976	13546.083984
6784.762907	0.097551	0.125976	13644.903320
6784.763843	0.097471	0.125976	13736.135742
6784.764725	0.097507	0.125976	13822.136719
6784.765712	0.097562	0.125976	13918.430664
6784.766718	0.097522	0.125976	14016.538086
6785.757623	0.991014	0.171045	417.217041
6785.758644	1.478419	0.171045	1926.682983
6785.759700	1.466012	0.171045	3474.791504
6785.760600	1.430654	0.171045	4762.380371
6785.761520	1.395084	0.171045	6045.857910
6785.762593	1.355735	0.171045	7500.561523
6785.763541	1.322834	0.171045	8754.608398
6785.764406	1.293076	0.171045	9873.119141
6785.765471	1.258872	0.171045	11213.818359
6785.766488	1.227404	0.171045	12462.087891
6785.767383	0.748707	0.171045	13132.180664
6785.768258	0.110288	0.171045	13228.682617
6785.769200	0.097467	0.171045	13320.496094
6785.770180	0.097386	0.171045	13415.934570
6785.771098	0.097434	0.171045	13505.378906
6785.771979	0.097452	0.171045	13591.234375
6785.773000	0.097518	0.171045	13690.800781
6785.773902	0.097540	0.171045	13778.782227
6785.774775	0.097463	0.171045	13863.868164
6785.775663	0.097515	0.171045	13950.460937
6785.776697	0.097474	0.171045	14051.249023
6786.822686	1.077169	0.129376	548.279114
6786.823599	1.481609	0.129376	1900.988037
6786.824463	1.472216	0.129376	3172.982422
6786.825539	1.432097	0.129376	4713.918945
6786.826541	1.393191	0.129376	6109.896484
6786.827422	1.360737	0.129376	7308.706055
6786.828438	1.325859	0.129376	8655.779297
6786.829500	1.289824	0.129376	10025.572266
6786.830395	1.260249	0.129376	11153.495117
6786.831257	1.231871	0.129376	12215.368164
6786.832356	0.714891	0.129376	13001.033203
6786.833332	0.103184	0.129376	13101.740234
6786.834194	0.097397	0.129376	13185.697266
6786.835245	0.097555	0.129376	13288.227539
6786.836288	0.097537	0.129376	13389.958008
6786.837173	0.097408	0.129376	13476.164062
6786.838068	0.097570	0.129376	13563.489258
6786.839153	0.097573	0.129376	13669.356445
6786.840095	0.097511	0.129376	13761.211914
6786.840958	0.097584	0.129376	13845.426758
6786.842009	0.097657	0.129376	13948.064453
6787.820998	1.001752	0.170670	433.758514
6787.821859	1.473530	0.170670	1702.468140
6787.822903	1.471018	0.170670	3238.210937
6787.823807	1.436682	0.170670	4536.971680
6787.824689	1.402441	0.170670	5773.924805
6787.825633	1.367574	0.170670	7064.915039
6787.826613	1.332579	0.170670	8370.842773
6787.827537	1.300961	0.170670	9572.930664
6787.828416	1.272151	0.170670	10691.151367
6787.829467	1.239690	0.170670	11994.065430
6787.830366	1.123004	0.170670	13003.646484
6787.831237	0.214764	0.170670	13190.706055
6787.832282	0.097522	0.170670	13292.616211
6787.833247	0.097595	0.170670	13386.795898
6787.834116	0.097511	0.170670	13471.533203
6787.834974	0.097522	0.170670	13555.207031
6787.836068	0.097471	0.170670	13661.839844
6787.836968	0.097548	0.170670	13749.632812
6787.837844	0.097526	0.170670	13835.065430
6787.838845	0.097603	0.170670	13932.765625
6787.839837	0.097496	0.170670	14029.482422
6788.896236	1.043500	0.131370	493.575348
6788.897107	1.477321	0.131370	1780.321533
6788.898083	1.472065	0.131370	3217.057373
6788.899138	1.431702	0.131370	4727.502930
6788.900064	1.395820	0.131370	6020.032227
6788.900938	1.362568	0.131370	7210.916992
6788.902055	1.323944	0.131370	8689.762695
6788.903058	1.289773	0.131370	9983.405273
6788.903957	1.260747	0.131370	11116.816406
6788.904957	1.229934	0.131370	12346.750000
6788.906021	0.656689	0.131370	13045.467773
6788.906912	0.103136	0.131370	13137.362305
6788.907791	0.097504	0.131370	13223.068359
6788.908890	0.097657	0.131370	13330.393555
6788.909862	0.097445	0.131370	13425.110352
6788.910728	0.097427	0.131370	13509.481445
6788.911765	0.097632	0.131370	13610.725586
6788.912783	0.097496	0.131370	13709.976562
6788.913665	0.097559	0.131370	13796.023437
6788.914598	0.097595	0.131370	13887.080078
6788.915645	0.097599	0.131370	13989.265625
6789.887415	0.990527	0.163959	417.011993
6789.888389	1.473776	0.163959	1852.469482
6789.889424	1.467971	0.163959	3371.819824
6789.890324	1.433251	0.163959	4661.745605
6789.891281	1.396879	0.163959	5998.558594
6789.892335	1.357892	0.163959	7429.776855
6789.893266	1.324801	0.163959	8663.166016
6789.894132	1.294596	0.163959	9784.286133
6789.895212	1.260388	0.163959	11145.505859
6789.896216	1.228949	0.163959	12379.371094
6789.897098	0.830511	0.163959	13111.881836
6789.898095	0.115990	0.163959	13227.523437
6789.899134	0.097441	0.163959	13328.764648
6789.900034	0.097419	0.163959	13416.442383
6789.900891	0.097485	0.163959	13499.987305
6789.901979	0.097588	0.163959	13606.163086
6789.902969	0.097507	0.163959	13702.695312
6789.903835	0.097511	0.163959	13787.139648
6789.904830	0.097650	0.163959	13884.301758
6789.905890	0.097562	0.163959	13987.717773
6789.906784	0.097401	0.163959	14074.793945
6790.964148	1.010061	0.132039	425.235687
6790.965278	1.482341	0.132039	2100.281250
6790.966249	1.464869	0.132039	3522.669434
6790.967111	1.431072	0.132039	4756.253418
6790.968163	1.390657	0.132039	6219.224609
6790.969230	1.352857	0.132039	7662.722656
6790.970113	1.320992	0.132039	8829.159180
6790.971048	1.289169	0.132039	10034.532227
6790.972117	1.254862	0.132039	11375.979492
6790.973052	1.225997	0.132039	12522.287109
6790.973927	0.710486	0.132039	13143.961914
6790.974976	0.101752	0.132039	13250.699219
6790.976000	0.097559	0.132039	13350.599609
6790.976893	0.097650	0.132039	13437.800781
6790.977770	0.097595	0.132039	13523.391602
6790.978729	0.097690	0.132039	13617.077148
6790.979696	0.097548	0.132039	13711.405273
6790.980618	0.097540	0.132039	13801.337891
6790.981480	0.097496	0.132039	13885.379883
6790.982523	0.097537	0.132039	13987.110352
6790.983397	0.097471	0.132039	14072.299805
6791.961635	1.086529	0.176765	557.389648
6791.962645	1.484469	0.176765	2056.703125
6791.963544	1.467876	0.176765	3376.323730
6791.964545	1.429841	0.176765	4807.594727
6791.965617	1.388591	0.176765	6296.164551
6791.966526	1.354750	0.176765	7527.631836
6791.967395	1.323076	0.176765	8677.384766
6791.968511	1.286785	0.176765	10113.436523
6791.969477	1.255609	0.176765	11326.355469
6791.970352	1.228392	0.176765	12401.199219
6791.971421	0.599026	0.176765	13041.557617
6791.972455	0.099386	0.176765	13144.322266
6791.973340	0.097438	0.176765	13230.554687
6791.974268	0.097518	0.176765	13321.051758
6791.975329	0.097522	0.176765	13424.522461
6791.976262	0.097449	0.176765	13515.442383
6791.977119	0.097467	0.176765	13598.971680
6791.978168	0.097452	0.176765	13701.199219
6791.979184	0.097419	0.176765	13800.177734
6791.980068	0.097548	0.176765	13886.410156
6791.981028	0.097577	0.176765	13980.083984
6793.030586	0.995548	0.122298	423.107941
6793.031591	1.476398	0.122298	1906.887695
6793.032588	1.468030	0.122298	3370.513184
6793.033481	1.433492	0.122298	4650.622070
6793.034349	1.398918	0.122298	5864.883301
6793.035453	1.359782	0.122298	7366.082031
6793.036361	1.327031	0.122298	8571.026367
6793.037232	1.297013	0.122298	9700.724609
6793.038243	1.265273	0.122298	10979.916016
6793.039255	1.232996	0.122298	12227.707031
6793.040144	0.958682	0.122298	13079.974609
6793.041005	0.143134	0.122298	13203.212891
6793.042099	0.097482	0.122298	13309.857422
6793.043006	0.097621	0.122298	13398.399414
6793.043870	0.097537	0.122298	13482.670898
6793.044944	0.097679	0.122298	13587.579102
6793.045947	0.097441	0.122298	13685.312500
6793.046832	0.097452	0.122298	13771.557617
6793.047816	0.097625	0.122298	13867.620117
6793.048866	0.097650	0.122298	13970.152344
6793.049767	0.097507	0.122298	14058.006836
6794.039248	1.017883	0.159101	437.689819
6794.040144	1.475493	0.159101	1759.731689
6794.041011	1.475621	0.159101	3039.095215
6794.042047	1.437678	0.159101	4528.529785
6794.042947	1.402061	0.159101	5790.384277
6794.043820	1.369545	0.159101	6985.997070
6794.044832	1.333854	0.159101	8335.857422
6794.045835	1.298606	0.159101	9638.359375
6794.046744	1.269166	0.159101	10792.031250
6794.047617	1.240173	0.159101	11874.703125
6794.048735	0.986741	0.159101	12977.878906
6794.049649	0.145232	0.159101	13110.621094
6794.050527	0.097460	0.159101	13196.190430
6794.051519	0.097599	0.159101	13293.008789
6794.052515	0.097397	0.159101	13390.016602
6794.053410	0.097485	0.159101	13477.265625
6794.054269	0.097544	0.159101	13561.055664
6794.055367	0.097463	0.159101	13668.070312
6794.056262	0.097416	0.159101	13755.257812
6794.057130	0.097478	0.159101	13839.869141
6794.058130	0.097562	0.159101	13937.431641
6795.092923	0.994080	0.139684	417.513397
6795.093792	1.473135	0.139684	1697.667480
6795.094896	1.468517	0.139684	3318.910156
6795.095880	1.431647	0.139684	4727.650391
6795.096755	1.397805	0.139684	5950.729980
6795.097774	1.359917	0.139684	7336.485352
6795.098820	1.323215	0.139684	8720.568359
6795.099718	1.292640	0.139684	9881.359375
6795.100661	1.262135	0.139684	11071.552734
6795.101732	1.228400	0.139684	12387.168945
6795.102679	0.742247	0.139684	13090.077148
6795.103546	0.109376	0.139684	13184.906250
6795.104623	0.097529	0.139684	13289.945312
6795.105628	0.097452	0.139684	13387.884766
6795.106524	0.097386	0.139684	13475.142578
6795.107490	0.097507	0.139684	13569.334961
6795.108544	0.097511	0.139684	13672.111328
6795.109449	0.097537	0.139684	13760.381836
6795.110310	0.097401	0.139684	13844.244141
6795.111382	0.097449	0.139684	13948.708984
6795.112389	0.097471	0.139684	14046.862305
6796.108304	1.069585	0.172612	544.418762
6796.109236	1.482070	0.172612	1925.708252
6796.110102	1.471633	0.172612	3200.142578
6796.111166	1.431672	0.172612	4723.441895
6796.112184	1.392451	0.172612	6140.957031
6796.113074	1.359602	0.172612	7351.002930
6796.114061	1.325233	0.172612	8659.007812
6796.115121	1.289205	0.172612	10025.565430
6796.116035	1.259121	0.172612	11176.402344
6796.116896	1.231608	0.172612	12236.816406
6796.117999	0.737377	0.172612	13050.142578
6796.118990	0.103411	0.172612	13152.622070
6796.119861	0.097328	0.172612	13237.394531
6796.120870	0.097548	0.172612	13335.820312
6796.121925	0.097526	0.172612	13438.709961
6796.122803	0.097518	0.172612	13524.331055
6796.123668	0.097485	0.172612	13608.656250
6796.124775	0.097526	0.172612	13716.617187
6796.125744	0.097412	0.172612	13811.009766
6796.126611	0.097485	0.172612	13895.529297
6796.127647	0.097694	0.172612	13996.740234
6797.164106	1.107609	0.141199	631.336975
6797.165156	1.484718	0.141199	2190.290771
6797.166050	1.464587	0.141199	3499.631836
6797.166916	1.429753	0.141199	4737.798340
6797.168016	1.389514	0.141199	6266.263672
6797.168979	1.353607	0.141199	7569.787109
6797.169841	1.323406	0.141199	8710.562500
6797.170909	1.287872	0.141199	10086.009766
6797.171953	1.254316	0.141199	11395.515625
6797.172828	1.226532	0.141199	12468.731445
6797.173763	0.684525	0.141199	13108.762695
6797.174835	0.100334	0.141199	13216.321289
6797.175773	0.097405	0.141199	13307.686523
6797.176646	0.097504	0.141199	13392.807617
6797.177687	0.097599	0.141199	13494.408203
6797.178711	0.097412	0.141199	13594.158203
6797.179598	0.097419	0.141199	13680.569336
6797.180541	0.097496	0.141199	13772.508789
6797.181597	0.097496	0.141199	13875.464844
6797.182523	0.097438	0.141199	13965.692383
6797.183384	0.097463	0.141199	14049.608398
6798.173734	1.043657	0.182090	554.181946
6798.174798	1.483466	0.182090	2132.589355
6798.175730	1.464078	0.182090	3497.110352
6798.176593	1.430079	0.182090	4731.268555
6798.177667	1.389869	0.182090	6223.988281
6798.178673	1.353127	0.182090	7585.234375
6798.179547	1.321637	0.182090	8740.344727
6798.180527	1.289048	0.182090	10003.611328
6798.181581	1.254880	0.182090	11326.254883
6798.182499	1.226268	0.182090	12451.968750
6798.183376	0.722014	0.182090	13085.174805
6798.184462	0.101470	0.182090	13195.371094
6798.185456	0.097412	0.182090	13292.199219
6798.186352	0.097456	0.182090	13379.519531
6798.187340	0.097610	0.182090	13475.958008
6798.188393	0.097518	0.182090	13578.644531
6798.189291	0.097471	0.182090	13666.172852
6798.190151	0.097434	0.182090	13749.965820
6798.191274	0.097515	0.182090	13859.474609
6798.192227	0.097522	0.182090	13952.413086
6798.193095	0.097526	0.182090	14037.065430
6799.244293	1.057903	0.129485	524.719788
6799.245297	1.483813	0.129485	2014.468506
6799.246190	1.468850	0.129485	3326.151611
6799.247186	1.431171	0.129485	4751.597656
6799.248241	1.390437	0.129485	6218.508789
6799.249155	1.357009	0.129485	7458.815430
6799.250018	1.324834	0.129485	8602.147461
6799.251105	1.289473	0.129485	10003.804687
6799.252074	1.258239	0.129485	11223.038086
6799.252946	1.230985	0.129485	12296.457031
6799.254022	0.693779	0.129485	13042.963867
6799.255070	0.101539	0.129485	13149.376953
6799.255948	0.097375	0.129485	13234.873047
6799.256862	0.097478	0.129485	13323.967773
6799.257931	0.097478	0.129485	13428.171875
6799.258871	0.097566	0.129485	13519.883789
6799.259770	0.097419	0.129485	13607.463867
6799.260648	0.097408	0.129485	13692.988281
6799.261672	0.097478	0.129485	13792.805664
6799.262559	0.097427	0.129485	13879.223633
6799.263430	0.097515	0.129485	13964.159180
6800.236485	1.015803	0.170457	438.826996
6800.237589	1.481953	0.170457	2074.903320
6800.238592	1.463342	0.170457	3542.635742
6800.239474	1.429574	0.170457	4803.520020
6800.240496	1.390734	0.170457	6224.849609
6800.241544	1.352509	0.170457	7642.278320
6800.242431	1.320861	0.170457	8813.881836
6800.243305	1.289601	0.170457	9940.993164
6800.244424	1.255459	0.170457	11345.851562
6800.245388	1.225426	0.170457	12527.162109
6800.246257	0.711013	0.170457	13145.032227
6800.247273	0.103162	0.170457	13249.844727
6800.248309	0.097482	0.170457	13350.835937
6800.249198	0.097489	0.170457	13437.503906
6800.250123	0.097537	0.170457	13527.725586
6800.251185	0.097643	0.170457	13631.421875
6800.252119	0.097548	0.170457	13722.531250
6800.252981	0.097467	0.170457	13806.547852
6800.254035	0.097614	0.170457	13909.432617
6800.255066	0.097496	0.170457	14009.951172
6800.255956	0.097559	0.170457	14096.778320
6801.313729	0.994288	0.143471	426.549652
6801.314778	1.480096	0.143471	1979.170898
6801.315660	1.470414	0.143471	3276.075928
6801.316526	1.436832	0.143471	4520.372559
6801.317400	1.401010	0.143471	5744.854980
6801.318478	1.362513	0.143471	7213.644531
6801.319380	1.330565	0.143471	8413.814453
6801.320245	1.300060	0.143471	9538.366211
6801.321370	1.264922	0.143471	10961.403320
6801.322278	1.235826	0.143471	12083.534180
6801.323156	1.078726	0.143471	13030.655273
6801.324171	0.160089	0.143471	13193.145508
6801.325147	0.097365	0.143471	13288.172852
6801.326070	0.097434	0.143471	13378.104492
6801.326930	0.097460	0.143471	13461.919922
6801.328016	0.097548	0.143471	13567.856445
6801.328910	0.097478	0.143471	13655.001953
6801.329781	0.097471	0.143471	13739.899414
6801.330794	0.097636	0.143471	13838.803711
6801.331790	0.097452	0.143471	13935.866211
6801.332666	0.097478	0.143471	14021.256836
6802.307105	1.082307	0.165820	553.058899
6802.308141	1.483890	0.165820	2090.369385
6802.309039	1.466477	0.165820	3407.265625
6802.309983	1.430270	0.165820	4757.440430
6802.311058	1.389141	0.165820	6250.766602
6802.311990	1.354827	0.165820	7513.464844
6802.312866	1.323475	0.165820	8672.829102
6802.313946	1.287579	0.165820	10063.415039
6802.314962	1.254664	0.165820	11338.154297
6802.315855	1.227180	0.165820	12434.026367
6802.316846	0.649526	0.165820	13077.707031
6802.317890	0.100232	0.165820	13182.349609
6802.318798	0.097460	0.165820	13270.842773
6802.319658	0.097515	0.165820	13354.705078
6802.320731	0.097548	0.165820	13459.374023
6802.321711	0.097507	0.165820	13554.931641
6802.322593	0.097467	0.165820	13640.897461
6802.323585	0.097515	0.165820	13737.631836
6802.324637	0.097559	0.165820	13840.263672
6802.325522	0.097529	0.165820	13926.577148
6802.326377	0.097559	0.165820	14009.990234
6803.380764	1.077283	0.136329	545.105103
6803.381727	1.482821	0.136329	1973.061768
6803.382593	1.470674	0.136329	3246.665283
6803.383642	1.430863	0.136329	4747.640625
6803.384681	1.390920	0.136329	6192.806641
6803.385570	1.357782	0.136329	7399.875000
6803.386529	1.324856	0.136329	8670.412109
6803.387610	1.288070	0.136329	10062.816406
6803.388541	1.257620	0.136329	11233.660156
6803.389406	1.230062	0.136329	12297.664062
6803.390485	0.681855	0.136329	13033.385742
6803.391500	0.101082	0.136329	13135.983398
6803.392366	0.097412	0.136329	13220.341797
6803.393321	0.097588	0.136329	13313.538086
6803.394384	0.097452	0.136329	13417.129883
6803.395291	0.097489	0.136329	13505.552734
6803.396159	0.097555	0.136329	13590.230469
6803.397233	0.097496	0.136329	13694.941406
6803.398229	0.097463	0.136329	13792.014648
6803.399113	0.097456	0.136329	13878.166016
6803.400094	0.097489	0.136329	13973.802734
6804.379572	0.988872	0.178699	416.315125
6804.380466	1.472054	0.178699	1732.331787
6804.381491	1.470557	0.178699	3239.652344
6804.382376	1.437239	0.178699	4511.608398
6804.383238	1.402438	0.178699	5720.509766
6804.384340	1.363264	0.178699	7222.826660
6804.385245	1.330627	0.178699	8427.044922
6804.386119	1.300895	0.178699	9564.027344
6804.387118	1.268075	0.178699	10830.833984
6804.388119	1.236072	0.178699	12068.141602
6804.389020	1.070314	0.178699	13032.494141
6804.389889	0.183940	0.178699	13192.337891
6804.390957	0.097522	0.178699	13296.491211
6804.391879	0.097518	0.178699	13386.403320
6804.392755	0.097423	0.178699	13471.746094
6804.393734	0.097668	0.178699	13567.363281
6804.394736	0.097504	0.178699	13665.061523
6804.395628	0.097507	0.178699	13752.038086
6804.396600	0.097617	0.178699	13846.921875
6804.397656	0.097555	0.178699	13949.939453
6804.398551	0.097628	0.178699	14037.316406
6805.447182	1.068820	0.134145	533.340942
6805.448141	1.482425	0.134145	1954.986938
6805.449017	1.470692	0.134145	3243.313232
6805.450060	1.430471	0.134145	4735.294922
6805.451121	1.390126	0.134145	6210.218262
6805.452014	1.356650	0.134145	7421.707031
6805.452957	1.323922	0.134145	8670.166016
6805.454039	1.287583	0.134145	10063.331055
6805.454986	1.256942	0.134145	11253.655273
6805.455857	1.229381	0.134145	12324.446289
6805.456935	0.648171	0.134145	13023.174805
6805.457942	0.100078	0.134145	13123.953125
6805.458829	0.097372	0.134145	13210.322266
6805.459796	0.097562	0.134145	13304.665039
6805.460845	0.097529	0.134145	13406.973633
6805.461762	0.097445	0.134145	13496.331055
6805.462621	0.097540	0.134145	13580.118164
6805.463707	0.097617	0.134145	13686.130859
6805.464707	0.097386	0.134145	13783.517578
6805.465581	0.097408	0.134145	13868.652344
6805.466593	0.097522	0.134145	13967.344727
6806.452165	1.004645	0.180890	434.006531
6806.453192	1.477339	0.180890	1951.233398
6806.454245	1.464965	0.180890	3493.841309
6806.455134	1.430248	0.180890	4765.331543
6806.456009	1.394971	0.180890	5985.931152
6806.457093	1.357042	0.180890	7456.964844
6806.458051	1.322340	0.180890	8723.766602
6806.458913	1.293864	0.180890	9839.077148
6806.459970	1.259308	0.180890	11170.166016
6806.461025	1.226935	0.180890	12464.582031
6806.461904	0.748876	0.180890	13122.843750
6806.462837	0.110167	0.180890	13225.629883
6806.463901	0.097562	0.180890	13329.436523
6806.464842	0.097500	0.180890	13421.183594
6806.465710	0.097460	0.180890	13505.778320
6806.466754	0.097526	0.180890	13607.594727
6806.467771	0.097467	0.180890	13706.718750
6806.468660	0.097463	0.180890	13793.363281
6806.469613	0.097518	0.180890	13886.297852
6806.470668	0.097628	0.180890	13989.295898
6806.471606	0.097405	0.180890	14080.661133
6807.516199	1.054233	0.134246	565.069092
6807.517255	1.483250	0.134246	2131.380615
6807.518175	1.464591	0.134246	3478.804199
6807.519039	1.430149	0.134246	4714.453125
6807.520135	1.389467	0.134246	6237.308594
6807.521137	1.352688	0.134246	7592.702148
6807.522013	1.321659	0.134246	8750.475586
6807.523001	1.288641	0.134246	10023.653320
6807.524071	1.253965	0.134246	11365.395508
6807.524981	1.224946	0.134246	12480.096680
6807.525906	0.662933	0.134246	13093.310547
6807.526770	0.105245	0.134246	13184.242187
6807.527825	0.097397	0.134246	13286.996094
6807.528720	0.097496	0.134246	13374.254883
6807.529594	0.097489	0.134246	13459.459961
6807.530606	0.097654	0.134246	13558.285156
6807.531539	0.097573	0.134246	13649.321289
6807.532462	0.097474	0.134246	13739.290039
6807.533320	0.097555	0.134246	13822.992187
6807.534354	0.097430	0.134246	13923.735352
6807.535241	0.097562	0.134246	14010.273437
6808.524265	1.047828	0.168950	493.527191
6808.525142	1.477031	0.168950	1788.883667
6808.526108	1.471648	0.168950	3210.495605
6808.527153	1.431877	0.168950	4706.807617
6808.528073	1.396095	0.168950	5991.214844
6808.528937	1.363616	0.168950	7169.378906
6808.530012	1.326427	0.168950	8595.288086
6808.531022	1.291729	0.168950	9899.933594
6808.531902	1.263083	0.168950	11011.447266
6808.532909	1.232278	0.168950	12252.350586
6808.533973	0.740566	0.168950	13040.313477
6808.534868	0.107699	0.168950	13136.704102
6808.535730	0.097493	0.168950	13220.743164
6808.536809	0.097690	0.168950	13326.151367
6808.537784	0.097551	0.168950	13421.263672
6808.538665	0.097485	0.168950	13507.148437
6808.539658	0.097716	0.168950	13604.180664
6808.540697	0.097478	0.168950	13705.459961
6808.541594	0.097467	0.168950	13792.887695
6808.542520	0.097478	0.168950	13883.152344
6808.543385	0.097577	0.168950	13967.556641
6809.582017	0.997841	0.148696	429.071442
6809.582958	1.473029	0.148696	1815.191284
6809.584025	1.467733	0.148696	3381.262695
6809.584898	1.433331	0.148696	4632.561035
6809.585773	1.399534	0.148696	5857.152832
6809.586818	1.360635	0.148696	7279.016113
6809.587786	1.327277	0.148696	8563.820312
6809.588660	1.297035	0.148696	9697.428711
6809.589694	1.263160	0.148696	11003.536133
6809.590729	1.230883	0.148696	12277.500000
6809.591632	0.896041	0.148696	13086.625000
6809.592587	0.126965	0.148696	13207.876953
6809.593639	0.097559	0.148696	13310.508789
6809.594577	0.097478	0.148696	13401.943359
6809.595440	0.097467	0.148696	13486.057617
6809.596507	0.097599	0.148696	13590.195312
6809.597511	0.097504	0.148696	13688.088867
6809.598400	0.097438	0.148696	13774.710937
6809.599360	0.097614	0.148696	13868.419922
6809.600395	0.097460	0.148696	13969.291016
6809.601308	0.097449	0.148696	14058.261719
6810.595769	0.998811	0.174126	422.497070
6810.596843	1.480338	0.174126	2012.380127
6810.597782	1.467316	0.174126	3390.189453
6810.598652	1.433353	0.174126	4637.207031
6810.599616	1.396769	0.174126	5983.691895
6810.600661	1.358071	0.174126	7402.876465
6810.601554	1.326237	0.174126	8587.206055
6810.602427	1.296075	0.174126	9718.679687
6810.603504	1.261450	0.174126	11077.261719
6810.604452	1.231915	0.174126	12245.117187
6810.605332	0.954313	0.174126	13084.912109
6810.606292	0.139387	0.174126	13218.723633
6810.607324	0.097401	0.174126	13319.241211
6810.608223	0.097449	0.174126	13406.847656
6810.609176	0.097496	0.174126	13499.761719
6810.610216	0.097548	0.174126	13601.210937
6810.611141	0.097467	0.174126	13691.368164
6810.611998	0.097551	0.174126	13774.969727
6810.613046	0.097584	0.174126	13877.238281
6810.614069	0.097485	0.174126	13976.965820
6810.614948	0.097544	0.174126	14062.707031
6811.646475	1.064927	0.152059	532.463379
6811.647464	1.483271	0.152059	1999.418823
6811.648357	1.468912	0.152059	3311.157715
6811.649357	1.431068	0.152059	4742.225586
6811.650413	1.390968	0.152059	6211.087891
6811.651315	1.357332	0.152059	7435.400879
6811.652182	1.324636	0.152059	8583.860352
6811.653297	1.288843	0.152059	10020.919922
6811.654255	1.257686	0.152059	11225.783203
6811.655123	1.230450	0.152059	12293.814453
6811.656163	0.716675	0.152059	13039.156250
6811.657197	0.102144	0.152059	13144.772461
6811.658076	0.097452	0.152059	13230.433594
6811.659019	0.097537	0.152059	13322.410156
6811.660080	0.097518	0.152059	13425.876953
6811.661011	0.097445	0.152059	13516.598633
6811.661868	0.097496	0.152059	13600.153320
6811.662910	0.097625	0.152059	13701.877930
6811.663925	0.097577	0.152059	13800.918945
6811.664816	0.097526	0.152059	13887.814453
6811.665784	0.097518	0.152059	13982.211914
6812.666365	1.053424	0.179037	514.070984
6812.667362	1.482861	0.179037	1992.483887
6812.668262	1.468744	0.179037	3314.353271
6812.669245	1.431357	0.179037	4721.377441
6812.670315	1.390931	0.179037	6209.673828
6812.671204	1.357526	0.179037	7416.514160
6812.672098	1.325259	0.179037	8601.294922
6812.673208	1.288290	0.179037	10031.296875
6812.674173	1.257239	0.179037	11244.532227
6812.675037	1.230117	0.179037	12307.353516
6812.676077	0.710599	0.179037	13046.376953
6812.677104	0.101935	0.179037	13151.064453
6812.677982	0.097383	0.179037	13236.566406
6812.678918	0.097606	0.179037	13327.925781
6812.679977	0.097595	0.179037	13431.279297
6812.680909	0.097463	0.179037	13522.115234
6812.681767	0.097438	0.179037	13605.716797
6812.682821	0.097599	0.179037	13708.585937
6812.683845	0.097511	0.179037	13808.437500
6812.684711	0.097460	0.179037	13892.837891
6812.685681	0.097566	0.179037	13987.476562
6813.716003	1.080198	0.148676	555.221619
6813.717023	1.483696	0.148676	2068.591797
6813.717909	1.467312	0.148676	3368.630371
6813.718879	1.430698	0.148676	4756.407715
6813.719943	1.389734	0.148676	6235.084473
6813.720877	1.355512	0.148676	7501.132324
6813.721743	1.323523	0.148676	8647.302734
6813.722826	1.288601	0.148676	10042.857422
6813.723829	1.255994	0.148676	11302.619141
6813.724707	1.228458	0.148676	12381.205078
6813.725691	0.694091	0.148676	13064.190430
6813.726758	0.101279	0.148676	13172.255859
6813.727650	0.097306	0.148676	13259.052734
6813.728514	0.097625	0.148676	13343.400391
6813.729612	0.097537	0.148676	13450.496094
6813.730594	0.097515	0.148676	13546.255859
6813.731487	0.097592	0.148676	13633.405273
6813.732469	0.097595	0.148676	13729.244141
6813.733526	0.097551	0.148676	13832.355469
6813.734414	0.097467	0.148676	13918.906250
6813.735284	0.097445	0.148676	14003.683594
6814.736396	1.066329	0.177116	540.628967
6814.737330	1.481400	0.177116	1924.256592
6814.738202	1.470890	0.177116	3206.872559
6814.739244	1.431233	0.177116	4698.217285
6814.740289	1.391572	0.177116	6152.410156
6814.741183	1.358712	0.177116	7367.098633
6814.742152	1.325087	0.177116	8651.107422
6814.743207	1.288923	0.177116	10010.921875
6814.744136	1.258601	0.177116	11180.162109
6814.745000	1.230894	0.177116	12243.654297
6814.746094	0.704806	0.177116	13014.711914
6814.747087	0.101752	0.177116	13115.750977
6814.747977	0.097430	0.177116	13202.463867
6814.748965	0.097551	0.177116	13298.844727
6814.750012	0.097474	0.177116	13400.900391
6814.750911	0.097485	0.177116	13488.540039
6814.751768	0.097493	0.177116	13572.090820
6814.752877	0.097672	0.177116	13680.409180
6814.753837	0.097504	0.177116	13774.012695
6814.754706	0.097474	0.177116	13858.717773
6814.755721	0.097720	0.177116	13957.903320
6815.788543	1.033121	0.136683	510.361938
6815.789622	1.482799	0.136683	2110.302246
6815.790569	1.464082	0.136683	3496.787842
6815.791434	1.430010	0.136683	4733.746094
6815.792479	1.389976	0.136683	6186.270508
6815.793513	1.352443	0.136683	7584.696289
6815.794408	1.320758	0.136683	8766.774414
6815.795382	1.288590	0.136683	10021.861328
6815.796440	1.254141	0.136683	11348.742187
6815.797366	1.225199	0.136683	12483.276367
6815.798245	0.702704	0.136683	13100.953125
6815.799334	0.100931	0.136683	13210.867187
6815.800343	0.097408	0.136683	13309.152344
6815.801234	0.097390	0.136683	13395.926758
6815.802230	0.097588	0.136683	13493.124023
6815.803276	0.097423	0.136683	13595.028320
6815.804176	0.097372	0.136683	13682.663086
6815.805035	0.097423	0.136683	13766.349609
6815.806150	0.097581	0.136683	13875.152344
6815.807109	0.097412	0.136683	13968.570312
6815.807972	0.097379	0.136683	14052.608398
6816.806866	1.028672	0.176785	460.845001
6816.807747	1.475391	0.176785	1760.664185
6816.808750	1.470641	0.176785	3235.717041
6816.809804	1.430771	0.176785	4743.750000
6816.810699	1.395949	0.176785	5993.124023
6816.811566	1.362294	0.176785	7174.232422
6816.812666	1.324995	0.176785	8631.726562
6816.813646	1.291692	0.176785	9897.584961
6816.814516	1.263241	0.176785	10996.604492
6816.815554	1.231542	0.176785	12274.945312
6816.816610	0.746290	0.176785	13063.028320
6816.817490	0.109109	0.176785	13159.043945
6816.818390	0.097482	0.176785	13246.777344
6816.819489	0.097603	0.176785	13354.042969
6816.820428	0.097474	0.176785	13445.571289
6816.821293	0.097507	0.176785	13529.915039
6816.822326	0.097581	0.176785	13630.715820
6816.823365	0.097592	0.176785	13732.113281
6816.824255	0.097445	0.176785	13818.839844
6816.825202	0.097559	0.176785	13911.227539
6816.826251	0.097515	0.176785	14013.520508
6817.859608	1.072775	0.132039	546.042297
6817.860523	1.480668	0.132039	1900.853271
6817.861388	1.470483	0.132039	3172.821289
6817.862489	1.430424	0.132039	4747.717773
6817.863490	1.391418	0.132039	6140.527344
6817.864367	1.359232	0.132039	7332.573730
6817.865373	1.323809	0.132039	8664.325195
6817.866455	1.288012	0.132039	10057.954102
6817.867330	1.258663	0.132039	11159.284180
6817.868208	1.230103	0.132039	12239.314453
6817.869341	0.659022	0.132039	12985.986328
6817.870287	0.101803	0.132039	13082.291992
6817.871152	0.097427	0.132039	13166.566406
6817.872169	0.097544	0.132039	13265.768555
6817.873211	0.097551	0.132039	13367.416992
6817.874098	0.097537	0.132039	13453.931641
6817.875041	0.097430	0.132039	13545.808594
6817.876122	0.097419	0.132039	13651.119141
6817.877068	0.097463	0.132039	13743.319336
6817.877928	0.097467	0.132039	13827.140625
6817.878985	0.097606	0.132039	13930.310547
6818.874294	0.989348	0.172785	417.504913
6818.875319	1.477269	0.172785	1931.705933
6818.876379	1.465005	0.172785	3484.611328
6818.877266	1.430149	0.172785	4753.153320
6818.878170	1.394187	0.172785	6013.498047
6818.879267	1.355237	0.172785	7500.192871
6818.880219	1.321890	0.172785	8758.631836
6818.881081	1.292109	0.172785	9872.429687
6818.882104	1.258488	0.172785	11159.862305
6818.883160	1.225935	0.172785	12454.449219
6818.884064	0.723783	0.172785	13108.749023
6818.885018	0.108457	0.172785	13212.216797
6818.886075	0.097577	0.172785	13315.355469
6818.887003	0.097482	0.172785	13405.818359
6818.887868	0.097346	0.172785	13490.022461
6818.888931	0.097529	0.172785	13593.696289
6818.889939	0.097511	0.172785	13691.987305
6818.890832	0.097467	0.172785	13779.025391
6818.891802	0.097573	0.172785	13873.671875
6818.892861	0.097504	0.172785	13976.928711
6818.893779	0.097441	0.172785	14066.379883
6819.930057	1.001580	0.139281	436.688660
6819.930926	1.473296	0.139281	1716.982910
6819.931947	1.470198	0.139281	3218.054687
6819.932992	1.431222	0.139281	4713.681641
6819.933893	1.395930	0.139281	5971.414551
6819.934820	1.361975	0.139281	7233.965332
6819.935693	1.330814	0.139281	8395.765625
6819.936694	1.295801	0.139281	9692.862305
6819.937630	1.265977	0.139281	10877.816406
6819.938506	1.238470	0.139281	11962.716797
6819.939545	1.009563	0.139281	13011.652344
6819.940425	0.156735	0.139281	13149.579102
6819.941294	0.097251	0.139281	13234.089844
6819.942153	0.097515	0.139281	13317.854492
6819.943232	0.097467	0.139281	13423.021484
6819.944129	0.097581	0.139281	13510.550781
6819.945005	0.097375	0.139281	13595.851562
6819.945994	0.097566	0.139281	13692.344727
6819.946934	0.097504	0.139281	13783.998047
6819.947854	0.097471	0.139281	13873.670898
6819.948716	0.097577	0.139281	13957.782227
6820.940729	0.990692	0.183061	417.081390
6820.941720	1.475405	0.183061	1879.208008
6820.942782	1.465942	0.183061	3436.038818
6820.943681	1.431035	0.183061	4722.539551
6820.944556	1.395417	0.183061	5943.529785
6820.945671	1.356123	0.183061	7455.606934
6820.946639	1.321985	0.183061	8735.288086
6820.947505	1.292596	0.183061	9854.676758
6820.948554	1.258777	0.183061	11175.133789
6820.949584	1.226924	0.183061	12438.865234
6820.950469	0.762737	0.183061	13113.887695
6820.951400	0.111639	0.183061	13217.824219
6820.952454	0.097474	0.183061	13320.562500
6820.953391	0.097441	0.183061	13411.865234
6820.954249	0.097493	0.183061	13495.513672
6820.955295	0.097588	0.183061	13597.590820
6820.956315	0.097452	0.183061	13696.992187
6820.957192	0.097434	0.183061	13782.441406
6820.958098	0.097467	0.183061	13870.746094
6820.958977	0.097430	0.183061	13956.387695
6820.959964	0.097489	0.183061	14052.609375
6822.004159	1.001565	0.137441	426.666626
6822.005110	1.473351	0.137441	1827.823364
6822.006157	1.467224	0.137441	3364.006836
6822.007057	1.432515	0.137441	4653.270020
6822.007926	1.398754	0.137441	5868.787109
6822.008992	1.359727	0.137441	7318.255859
6822.009942	1.325768	0.137441	8577.735352
6822.010832	1.295940	0.137441	9731.122070
6822.011891	1.261469	0.137441	11067.017578
6822.012906	1.229876	0.137441	12315.341797
6822.013802	0.868385	0.137441	13093.415039
6822.014773	0.122003	0.137441	13211.879883
6822.015806	0.097427	0.137441	13312.521484
6822.016722	0.097515	0.137441	13401.844727
6822.017581	0.097430	0.137441	13485.537109
6822.018650	0.097606	0.137441	13589.877930
6822.019652	0.097460	0.137441	13687.532227
6822.020529	0.097489	0.137441	13773.030273
6822.021518	0.097672	0.137441	13869.627930
6822.022565	0.097471	0.137441	13971.679687
6822.023469	0.097452	0.137441	14059.776367
6823.005750	1.098622	0.183049	603.143372
6823.006685	1.482338	0.183049	1989.128906
6823.007616	1.467224	0.183049	3355.114502
6823.008481	1.433108	0.183049	4594.752930
6823.009549	1.393319	0.183049	6082.817383
6823.010442	1.359855	0.183049	7297.167480
6823.011324	1.329650	0.183049	8469.917969
6823.012330	1.295577	0.183049	9773.268555
6823.013266	1.264153	0.183049	10956.515625
6823.014196	1.235288	0.183049	12105.333984
6823.015058	1.037783	0.183049	12999.903320
6823.016120	0.137545	0.183049	13145.976562
6823.016994	0.097401	0.183049	13231.105469
6823.017867	0.097485	0.183049	13316.209961
6823.018831	0.097562	0.183049	13410.259766
6823.019800	0.097474	0.183049	13504.712891
6823.020676	0.097408	0.183049	13590.042969
6823.021583	0.097526	0.183049	13678.499023
6823.022664	0.097482	0.183049	13783.876953
6823.023550	0.097482	0.183049	13870.246094
6823.024411	0.097441	0.183049	13954.143555
6824.076247	1.023878	0.136546	453.578064
6824.077121	1.475002	0.136546	1742.730225
6824.078134	1.469956	0.136546	3231.795654
6824.079193	1.430336	0.136546	4746.520996
6824.080087	1.395626	0.136546	5994.210937
6824.080986	1.361759	0.136546	7218.432617
6824.082095	1.323102	0.136546	8685.752930
6824.083055	1.290692	0.136546	9924.817383
6824.083924	1.262303	0.136546	11021.758789
6824.084983	1.229454	0.136546	12323.750977
6824.086014	0.690359	0.136546	13035.510742
6824.086907	0.105029	0.136546	13129.301758
6824.087874	0.097467	0.136546	13223.552734
6824.088925	0.097566	0.136546	13326.094727
6824.089854	0.097441	0.136546	13416.618164
6824.090717	0.097577	0.136546	13500.827148
6824.091776	0.097588	0.136546	13604.172852
6824.092767	0.097551	0.136546	13700.845703
6824.093652	0.097518	0.136546	13787.149414
6824.094651	0.097654	0.136546	13884.705078
6824.095693	0.097617	0.136546	13986.421875
6825.073105	1.015338	0.180173	445.733459
6825.073971	1.473538	0.180173	1721.816895
6825.075045	1.468667	0.180173	3299.165283
6825.076050	1.429980	0.180173	4736.295410
6825.076935	1.395996	0.180173	5971.751953
6825.077910	1.360016	0.180173	7297.767578
6825.078986	1.322827	0.180173	8721.129883
6825.079872	1.292139	0.180173	9865.964844
6825.080745	1.262256	0.180173	10967.914062
6825.081856	1.228597	0.180173	12332.885742
6825.082837	0.748513	0.180173	13067.176758
6825.083698	0.109922	0.180173	13161.819336
6825.084753	0.097588	0.180173	13264.774414
6825.085789	0.097504	0.180173	13365.788086
6825.086676	0.097511	0.180173	13452.280273
6825.087577	0.097581	0.180173	13540.200195
6825.088654	0.097493	0.180173	13645.200195
6825.089598	0.097460	0.180173	13737.202148
6825.090461	0.097383	0.180173	13821.243164
6825.091510	0.097522	0.180173	13923.543945
6825.092532	0.097449	0.180173	14023.136719
6826.148879	1.062224	0.135314	538.547668
6826.149784	1.480214	0.135314	1878.141113
6826.150656	1.470597	0.135314	3160.501465
6826.151778	1.429424	0.135314	4764.314941
6826.152753	1.392125	0.135314	6121.637207
6826.153624	1.359759	0.135314	7305.987793
6826.154681	1.323025	0.135314	8704.424805
6826.155723	1.288085	0.135314	10046.609375
6826.156622	1.258462	0.135314	11177.966797
6826.157572	1.229279	0.135314	12345.781250
6826.158633	0.644092	0.135314	13029.163086
6826.159560	0.102114	0.135314	13123.823242
6826.160419	0.097379	0.135314	13207.471680
6826.161481	0.097716	0.135314	13311.246094
6826.162491	0.097518	0.135314	13409.739258
6826.163371	0.097555	0.135314	13495.587891
6826.164234	0.097522	0.135314	13579.749023
6826.165178	0.097599	0.135314	13671.882812
6826.166141	0.097485	0.135314	13765.760742
6826.167052	0.097562	0.135314	13854.639648
6826.167927	0.097639	0.135314	13940.074219
6827.142598	1.016440	0.181933	436.052917
6827.143477	1.474259	0.181933	1731.926514
6827.144493	1.470007	0.181933	3225.454102
6827.145551	1.430457	0.181933	4738.876953
6827.146444	1.395839	0.181933	5985.360840
6827.147361	1.361503	0.181933	7233.858887
6827.148459	1.323146	0.181933	8686.672852
6827.149412	1.291022	0.181933	9917.016602
6827.150283	1.262461	0.181933	11016.620117
6827.151337	1.229414	0.181933	12312.422852
6827.152371	0.699946	0.181933	13036.166992
6827.153270	0.105260	0.181933	13130.795898
6827.154235	0.097595	0.181933	13224.975586
6827.155274	0.097452	0.181933	13326.228516
6827.156184	0.097434	0.181933	13414.893555
6827.157042	0.097507	0.181933	13498.554687
6827.158114	0.097544	0.181933	13603.122070
6827.159120	0.097434	0.181933	13701.140625
6827.159999	0.097496	0.181933	13786.839844
6827.160979	0.097643	0.181933	13882.530273
6827.162017	0.097581	0.181933	13983.819336
6828.216760	0.989509	0.144434	415.593903
6828.217652	1.471857	0.144434	1728.490112
6828.218758	1.467806	0.144434	3351.884033
6828.219653	1.433243	0.144434	4634.636719
6828.220521	1.399669	0.144434	5849.549805
6828.221575	1.360855	0.144434	7283.890625
6828.222552	1.326581	0.144434	8579.959961
6828.223430	1.296160	0.144434	9717.988281
6828.224306	1.266372	0.144434	10827.330078
6828.225424	1.233153	0.144434	12205.995117
6828.226305	0.975703	0.144434	13065.589844
6828.227169	0.147935	0.144434	13193.405273
6828.228221	0.097515	0.144434	13295.990234
6828.229189	0.097504	0.144434	13390.374023
6828.230044	0.097471	0.144434	13473.711914
6828.231121	0.097570	0.144434	13578.793945
6828.232176	0.097449	0.144434	13681.602539
6828.233049	0.097467	0.144434	13766.691406
6828.233973	0.097551	0.144434	13856.829102
6828.235044	0.097584	0.144434	13961.341797
6828.235987	0.097449	0.144434	14053.236328
6829.213111	0.989930	0.186643	416.760681
6829.214087	1.473494	0.186643	1854.890625
6829.215145	1.466092	0.186643	3406.016602
6829.216069	1.430098	0.186643	4727.426758
6829.216998	1.394619	0.186643	6023.028320
6829.217869	1.361818	0.186643	7209.171387
6829.218920	1.325508	0.186643	8602.280273
6829.219813	1.294948	0.186643	9758.667969
6829.220684	1.266599	0.186643	10861.875977
6829.221666	1.235852	0.186643	12075.482422
6829.222613	1.007900	0.186643	13029.963867
6829.223529	0.151044	0.186643	13168.320312
6829.224405	0.097386	0.186643	13253.630859
6829.225447	0.097343	0.186643	13355.061523
6829.226348	0.097386	0.186643	13442.806641
6829.227222	0.097346	0.186643	13527.887695
6829.228148	0.097489	0.186643	13618.162109
6829.229136	0.097343	0.186643	13714.336914
6829.230008	0.097405	0.186643	13799.273437
6829.230890	0.097566	0.186643	13885.326172
6829.231982	0.097496	0.186643	13991.791992
6830.282211	1.047506	0.143189	475.567780
6830.283093	1.476039	0.143189	1777.433960
6830.284101	1.470106	0.143189	3259.301025
6830.285160	1.430017	0.143189	4773.689453
6830.286054	1.394637	0.143189	6020.495117
6830.286916	1.361492	0.143189	7194.101074
6830.288033	1.324028	0.143189	8673.041016
6830.288997	1.291282	0.143189	9917.836914
6830.289860	1.262820	0.143189	11007.650391
6830.290908	1.230414	0.143189	12297.124023
6830.291963	0.711570	0.143189	13047.830078
6830.292831	0.106626	0.143189	13140.381836
6830.293768	0.097551	0.143189	13231.787109
6830.294836	0.097632	0.143189	13336.057617
6830.295781	0.097474	0.143189	13428.170898
6830.296645	0.097482	0.143189	13512.395508
6830.297664	0.097529	0.143189	13611.778320
6830.298688	0.097438	0.143189	13711.554687
6830.299576	0.097449	0.143189	13798.088867
6830.300509	0.097573	0.143189	13889.125000
6830.301574	0.097518	0.143189	13992.982422
6831.288799	1.037941	0.182179	466.035339
6831.289678	1.475087	0.182179	1762.636475
6831.290696	1.469747	0.182179	3258.839355
6831.291755	1.429644	0.182179	4772.832031
6831.292646	1.394539	0.182179	6015.365723
6831.293512	1.361704	0.182179	7194.601562
6831.294619	1.323896	0.182179	8660.155273
6831.295585	1.291384	0.182179	9907.632812
6831.296448	1.262911	0.182179	10997.525391
6831.297501	1.229692	0.182179	12292.391602
6831.298539	0.713643	0.182179	13033.152344
6831.299425	0.106648	0.182179	13127.642578
6831.300344	0.097430	0.182179	13217.180664
6831.301418	0.097471	0.182179	13321.864258
6831.302364	0.097489	0.182179	13414.088867
6831.303232	0.097405	0.182179	13498.635742
6831.304291	0.097559	0.182179	13601.950195
6831.305310	0.097511	0.182179	13701.313477
6831.306197	0.097573	0.182179	13787.861328
6831.307153	0.097592	0.182179	13881.159180
6831.308205	0.097478	0.182179	13983.706055
6832.346040	0.991729	0.147443	416.526001
6832.347004	1.472893	0.147443	1836.395020
6832.348074	1.465972	0.147443	3404.984863
6832.349013	1.429687	0.147443	4747.461426
6832.349880	1.395571	0.147443	5957.421875
6832.350956	1.356738	0.147443	7417.272461
6832.351953	1.321604	0.147443	8734.912109
6832.352843	1.291454	0.147443	9884.305664
6832.353853	1.259495	0.147443	11156.395508
6832.354903	1.226591	0.147443	12444.315430
6832.355810	0.725164	0.147443	13102.039062
6832.356666	0.109156	0.147443	13195.476562
6832.357752	0.097515	0.147443	13301.377930
6832.358739	0.097445	0.147443	13397.556641
6832.359616	0.097423	0.147443	13482.997070
6832.360602	0.097581	0.147443	13579.211914
6832.361668	0.097584	0.147443	13683.236328
6832.362534	0.097394	0.147443	13767.579102
6832.363411	0.097471	0.147443	13853.060547
6832.364516	0.097548	0.147443	13960.850586
6832.365479	0.097489	0.147443	14054.732422
6833.361868	1.021402	0.179391	451.459900
6833.362752	1.474889	0.179391	1755.261719
6833.363747	1.470828	0.179391	3218.735107
6833.364794	1.431167	0.179391	4717.166992
6833.365698	1.395699	0.179391	5978.879395
6833.366563	1.362667	0.179391	7157.586426
6833.367672	1.324922	0.179391	8626.924805
6833.368632	1.292208	0.179391	9867.444336
6833.369508	1.263721	0.179391	10974.463867
6833.370542	1.231871	0.179391	12248.218750
6833.371592	0.761488	0.179391	13047.781250
6833.372473	0.110416	0.179391	13145.057617
6833.373360	0.097478	0.179391	13231.520508
6833.374474	0.097606	0.179391	13340.253906
6833.375417	0.097573	0.179391	13432.265625
6833.376282	0.097463	0.179391	13516.571289
6833.377305	0.097592	0.179391	13616.407227
6833.378344	0.097592	0.179391	13717.804687
6833.379234	0.097482	0.179391	13804.563477
6833.380169	0.097625	0.179391	13895.842773
6833.381231	0.097463	0.179391	13999.348633
6834.414011	1.017202	0.148990	432.310913
6834.415072	1.482220	0.148990	2004.946777
6834.415971	1.468378	0.148990	3325.018311
6834.416857	1.434525	0.148990	4596.007812
6834.417852	1.396978	0.148990	5986.000488
6834.418801	1.360950	0.148990	7277.541992
6834.419722	1.328723	0.148990	8501.295898
6834.420591	1.298167	0.148990	9629.402344
6834.421638	1.264955	0.148990	10953.810547
6834.422526	1.236918	0.148990	12052.193359
6834.423388	1.094820	0.148990	12995.928711
6834.424434	0.155874	0.148990	13158.972656
6834.425381	0.097383	0.148990	13251.194336
6834.426258	0.097511	0.148990	13336.711914
6834.427203	0.097544	0.148990	13428.890625
6834.428248	0.097500	0.148990	13530.778320
6834.429140	0.097518	0.148990	13617.764648
6834.430003	0.097515	0.148990	13701.919922
6834.431049	0.097533	0.148990	13803.939453
6834.432012	0.097478	0.148990	13897.810547
6834.432885	0.097397	0.148990	13982.838867
6835.430339	0.995753	0.181007	426.182343
6835.431380	1.478665	0.181007	1965.472168
6835.432264	1.469652	0.181007	3264.644531
6835.433130	1.436246	0.181007	4508.433594
6835.434034	1.400405	0.181007	5774.399902
6835.435078	1.362305	0.181007	7196.645996
6835.435983	1.330895	0.181007	8401.105469
6835.436862	1.300488	0.181007	9544.234375
6835.437865	1.268123	0.181007	10816.161133
6835.438804	1.237698	0.181007	11978.359375
6835.439746	1.094074	0.181007	13008.976562
6835.440614	0.194418	0.181007	13177.731445
6835.441647	0.097383	0.181007	13278.328125
6835.442522	0.097544	0.181007	13363.678711
6835.443387	0.097592	0.181007	13448.095703
6835.444386	0.097599	0.181007	13545.596680
6835.445311	0.097522	0.181007	13635.804687
6835.446178	0.097522	0.181007	13720.356445
6835.447135	0.097581	0.181007	13813.741211
6835.448183	0.097529	0.181007	13915.952148
6835.449076	0.097555	0.181007	14003.068359
6836.486684	1.061221	0.141686	552.895996
6836.487733	1.482795	0.141686	2108.348145
6836.488655	1.464283	0.141686	3458.417480
6836.489521	1.429937	0.141686	4696.742676
6836.490614	1.389342	0.141686	6215.293457
6836.491615	1.352402	0.141686	7569.048340
6836.492491	1.321758	0.141686	8726.908203
6836.493503	1.288447	0.141686	10030.816406
6836.494560	1.254170	0.141686	11356.473633
6836.495452	1.226019	0.141686	12450.083008
6836.496325	0.720513	0.141686	13079.090820
6836.497429	0.101799	0.141686	13191.477539
6836.498389	0.097412	0.141686	13284.993164
6836.499245	0.097500	0.141686	13368.453125
6836.500299	0.097581	0.141686	13471.302734
6836.501358	0.097500	0.141686	13574.555664
6836.502233	0.097496	0.141686	13659.865234
6836.503165	0.097529	0.141686	13750.762695
6836.504251	0.097617	0.141686	13856.775391
6836.505182	0.097397	0.141686	13947.452148
6836.506050	0.097474	0.141686	14032.059570
6837.495241	1.010208	0.180455	441.460693
6837.496106	1.472479	0.180455	1715.155273
6837.497208	1.467550	0.180455	3332.395508
6837.498207	1.429252	0.180455	4760.217773
6837.499089	1.395429	0.180455	5990.985840
6837.500106	1.358873	0.180455	7372.959961
6837.501166	1.321597	0.180455	8773.852539
6837.502050	1.291088	0.180455	9915.173828
6837.502932	1.260992	0.180455	11027.369141
6837.504029	1.227865	0.180455	12374.336914
6837.504990	0.730891	0.180455	13076.723633
6837.505856	0.108889	0.180455	13171.021484
6837.506883	0.097573	0.180455	13271.229492
6837.507924	0.097441	0.180455	13372.666016
6837.508814	0.097493	0.180455	13459.434570
6837.509748	0.097438	0.180455	13550.441406
6837.510820	0.097599	0.180455	13655.067383
6837.511759	0.097368	0.180455	13746.496094
6837.512627	0.097438	0.180455	13831.072266
6837.513667	0.097683	0.180455	13932.663086
6837.514691	0.097478	0.180455	14032.480469
6838.561256	1.040892	0.145207	488.178467
6838.562132	1.476075	0.145207	1781.220581
6838.563111	1.470751	0.145207	3221.085449
6838.564187	1.430065	0.145207	4759.834961
6838.565093	1.394260	0.145207	6023.034668
6838.565969	1.361554	0.145207	7215.755859
6838.567042	1.324149	0.145207	8636.568359
6838.568040	1.290018	0.145207	9924.006836
6838.568938	1.261263	0.145207	11056.621094
6838.569928	1.230670	0.145207	12274.984375
6838.571006	0.700107	0.145207	13029.700195
6838.571899	0.104813	0.145207	13123.298828
6838.572757	0.097485	0.145207	13206.941406
6838.573873	0.097727	0.145207	13316.004883
6838.574838	0.097526	0.145207	13410.117187
6838.575706	0.097540	0.145207	13494.782227
6838.576801	0.097625	0.145207	13601.680664
6838.577833	0.097599	0.145207	13702.402344
6838.578726	0.097445	0.145207	13789.420898
6838.579646	0.097445	0.145207	13879.070312
6838.580509	0.097533	0.145207	13963.241211
6839.560719	1.068351	0.187460	540.585510
6839.561628	1.479727	0.187460	1885.656982
6839.562495	1.470494	0.187460	3160.575684
6839.563576	1.430515	0.187460	4706.962402
6839.564589	1.391151	0.187460	6116.198730
6839.565492	1.358643	0.187460	7343.052734
6839.566479	1.323830	0.187460	8649.673828
6839.567544	1.288169	0.187460	10021.574219
6839.568454	1.258132	0.187460	11166.474609
6839.569324	1.229879	0.187460	12236.469727
6839.570440	0.678278	0.187460	12993.427734
6839.571399	0.102059	0.187460	13091.302734
6839.572266	0.097343	0.187460	13175.698242
6839.573347	0.097632	0.187460	13281.238281
6839.574385	0.097460	0.187460	13382.401367
6839.575277	0.097500	0.187460	13469.371094
6839.576208	0.097584	0.187460	13560.221680
6839.577253	0.097540	0.187460	13662.151367
6839.578188	0.097533	0.187460	13753.344727
6839.579047	0.097445	0.187460	13837.049805
6839.580089	0.097643	0.187460	13938.793945
6840.633370	1.060078	0.145070	552.300720
6840.634390	1.483271	0.145070	2065.237549
6840.635272	1.466953	0.145070	3359.090332
6840.636258	1.429980	0.145070	4769.050781
6840.637304	1.389232	0.145070	6222.187500
6840.638223	1.355266	0.145070	7467.676758
6840.639091	1.323794	0.145070	8616.729492
6840.640184	1.288147	0.145070	10024.673828
6840.641184	1.255723	0.145070	11280.396484
6840.642060	1.228308	0.145070	12356.394531
6840.643067	0.686448	0.145070	13047.647461
6840.644140	0.101180	0.145070	13156.213867
6840.645019	0.097401	0.145070	13241.829102
6840.645885	0.097467	0.145070	13326.235352
6840.646999	0.097654	0.145070	13435.021484
6840.647969	0.097537	0.145070	13529.631836
6840.648835	0.097551	0.145070	13614.111328
6840.649870	0.097701	0.145070	13715.232422
6840.650917	0.097537	0.145070	13817.353516
6840.651808	0.097573	0.145070	13904.291016
6840.652735	0.097639	0.145070	13994.802734
6841.629112	0.995321	0.187956	422.016113
6841.629984	1.472216	0.187956	1705.788086
6841.630975	1.471820	0.187956	3164.361816
6841.631895	1.437085	0.187956	4486.479980
6841.632778	1.402720	0.187956	5725.081543
6841.633770	1.367098	0.187956	7081.243164
6841.634714	1.333000	0.187956	8339.595703
6841.635633	1.301345	0.187956	9535.532227
6841.636506	1.271239	0.187956	10645.324219
6841.637540	1.239335	0.187956	11926.795898
6841.638445	1.141450	0.187956	12959.808594
6841.639323	0.232958	0.187956	13164.345703
6841.640279	0.097639	0.187956	13257.688477
6841.641249	0.097515	0.187956	13352.277344
6841.642125	0.097537	0.187956	13437.719727
6841.643035	0.097555	0.187956	13526.495117
6841.644110	0.097533	0.187956	13631.342773
6841.644984	0.097511	0.187956	13716.567383
6841.645843	0.097507	0.187956	13800.326172
6841.646885	0.097584	0.187956	13902.008789
6841.647849	0.097463	0.187956	13995.963867
6842.701752	0.988312	0.145207	415.090942
6842.702728	1.472944	0.145207	1852.684692
6842.703804	1.465558	0.145207	3429.625000
6842.704712	1.429702	0.145207	4727.794434
6842.705590	1.395084	0.145207	5952.678711
6842.706678	1.356156	0.145207	7428.176270
6842.707676	1.320916	0.145207	8746.450195
6842.708575	1.290710	0.145207	9906.798828
6842.709569	1.258824	0.145207	11158.070312
6842.710634	1.226067	0.145207	12463.832031
6842.711531	0.716331	0.145207	13106.380859
6842.712393	0.108204	0.145207	13199.653320
6842.713526	0.097478	0.145207	13310.095703
6842.714481	0.097452	0.145207	13403.163086
6842.715348	0.097540	0.145207	13487.730469
6842.716392	0.097526	0.145207	13589.546875
6842.717413	0.097537	0.145207	13689.131836
6842.718294	0.097522	0.145207	13775.048828
6842.719230	0.097559	0.145207	13866.363281
6842.720281	0.097657	0.145207	13969.000977
6842.721222	0.097445	0.145207	14060.697266
6843.700732	1.063411	0.188322	510.437103
6843.701610	1.476812	0.188322	1807.077637
6843.702598	1.469898	0.188322	3259.336426
6843.703659	1.429347	0.188322	4775.873535
6843.704577	1.393488	0.188322	6055.095215
6843.705445	1.360228	0.188322	7235.773437
6843.706527	1.323761	0.188322	8668.083008
6843.707537	1.289300	0.188322	9970.276367
6843.708413	1.260593	0.188322	11074.556641
6843.709409	1.229572	0.188322	12299.209961
6843.710485	0.673433	0.188322	13023.823242
6843.711378	0.103861	0.188322	13116.571289
6843.712245	0.097471	0.188322	13201.078125
6843.713340	0.097599	0.188322	13307.949219
6843.714317	0.097529	0.188322	13403.235352
6843.715185	0.097518	0.188322	13487.880859
6843.716242	0.097672	0.188322	13591.120117
6843.717287	0.097478	0.188322	13692.984375
6843.718172	0.097570	0.188322	13779.333008
6843.719103	0.097595	0.188322	13870.194336
6843.720172	0.097566	0.188322	13974.492187
6844.768702	1.011017	0.146492	431.704193
6844.769793	1.480587	0.146492	2047.024780
6844.770794	1.463328	0.146492	3511.815918
6844.771672	1.429365	0.146492	4766.798828
6844.772684	1.391287	0.146492	6174.780762
6844.773730	1.353435	0.146492	7590.473633
6844.774623	1.321282	0.146492	8770.377930
6844.775493	1.290073	0.146492	9892.742187
6844.776611	1.255386	0.146492	11296.263672
6844.777577	1.225558	0.146492	12480.152344
6844.778455	0.738036	0.146492	13128.147461
6844.779476	0.103755	0.146492	13234.081055
6844.780518	0.097661	0.146492	13335.843750
6844.781407	0.097445	0.146492	13422.472656
6844.782277	0.097566	0.146492	13507.355469
6844.783201	0.097518	0.146492	13597.461914
6844.784189	0.097518	0.146492	13693.809570
6844.785106	0.097504	0.146492	13783.220703
6844.785982	0.097511	0.146492	13868.640625
6844.787007	0.097460	0.146492	13968.537109
6844.787909	0.097581	0.146492	14056.554687
6845.773820	1.056863	0.187827	505.180389
6845.774701	1.476991	0.187827	1806.409424
6845.775666	1.470245	0.187827	3225.196289
6845.776702	1.430749	0.187827	4707.452637
6845.777631	1.394919	0.187827	6003.333008
6845.778498	1.362129	0.187827	7184.298828
6845.779584	1.324647	0.187827	8622.865234
6845.780595	1.290293	0.187827	9927.351562
6845.781478	1.261739	0.187827	11041.467773
6845.782483	1.230725	0.187827	12278.346680
6845.783545	0.708215	0.187827	13030.471680
6845.784440	0.105736	0.187827	13125.105469
6845.785296	0.097394	0.187827	13208.474609
6845.786374	0.097584	0.187827	13313.669922
6845.787361	0.097504	0.187827	13409.906250
6845.788243	0.097537	0.187827	13495.933594
6845.789220	0.097537	0.187827	13591.226562
6845.790277	0.097540	0.187827	13694.326172
6845.791174	0.097416	0.187827	13781.708008
6845.792034	0.097485	0.187827	13865.545898
6845.793155	0.097603	0.187827	13974.958008
6846.836153	1.013357	0.152776	428.649994
6846.837219	1.482352	0.152776	2008.837524
6846.838110	1.468249	0.152776	3317.047852
6846.838987	1.434679	0.152776	4575.261230
6846.839965	1.397552	0.152776	5942.067383
6846.840912	1.361671	0.152776	7231.569824
6846.841844	1.329155	0.152776	8470.342773
6846.842711	1.299159	0.152776	9596.713867
6846.843762	1.265435	0.152776	10926.685547
6846.844651	1.237441	0.152776	12026.771484
6846.845511	1.106565	0.152776	12978.416992
6846.846572	0.161316	0.152776	13149.573242
6846.847506	0.097310	0.152776	13240.459961
6846.848384	0.097526	0.152776	13326.087891
6846.849339	0.097665	0.152776	13419.357422
6846.850374	0.097515	0.152776	13520.285156
6846.851266	0.097478	0.152776	13607.235352
6846.852128	0.097482	0.152776	13691.264648
6846.853211	0.097592	0.152776	13796.956055
6846.854147	0.097555	0.152776	13888.267578
6846.855022	0.097500	0.152776	13973.580078
6847.845390	1.036403	0.193128	528.565308
6847.846447	1.482012	0.193128	2095.051758
6847.847394	1.463540	0.193128	3481.024170
6847.848260	1.429471	0.193128	4718.946289
6847.849315	1.389115	0.193128	6184.462891
6847.850348	1.351915	0.193128	7580.991211
6847.851223	1.320901	0.193128	8736.779297
6847.852099	1.291029	0.193128	9867.720703
6847.853077	1.260315	0.193128	11100.308594
6847.854039	1.229652	0.193128	12283.234375
6847.854969	0.847566	0.193128	13071.470703
6847.855837	0.120018	0.193128	13175.646484
6847.856865	0.097408	0.193128	13275.782227
6847.857757	0.097350	0.193128	13362.618164
6847.858629	0.097372	0.193128	13447.526367
6847.859536	0.097460	0.193128	13535.921875
6847.860548	0.097496	0.193128	13634.587891
6847.861468	0.097445	0.193128	13724.237305
6847.862324	0.097533	0.193128	13807.725586
6847.863327	0.097496	0.193128	13905.514648
6847.864241	0.097522	0.193128	13994.649414
6848.904130	1.010079	0.151451	437.364380
6848.905006	1.473541	0.151451	1728.186523
6848.905993	1.471135	0.151451	3180.197021
6848.907002	1.433064	0.151451	4626.158691
6848.907898	1.398439	0.151451	5879.160156
6848.908763	1.365135	0.151451	7060.002441
6848.909861	1.327899	0.151451	8518.035156
6848.910778	1.296141	0.151451	9706.596680
6848.911644	1.266896	0.151451	10803.728516
6848.912740	1.233530	0.151451	12155.677734
6848.913745	0.879716	0.151451	13039.791992
6848.914622	0.125680	0.151451	13150.013672
6848.915639	0.097581	0.151451	13249.252930
6848.916684	0.097570	0.151451	13351.212891
6848.917561	0.097592	0.151451	13436.800781
6848.918428	0.097566	0.151451	13521.390625
6848.919533	0.097581	0.151451	13629.216797
6848.920499	0.097540	0.151451	13723.440430
6848.921367	0.097573	0.151451	13808.133789
6848.922390	0.097610	0.151451	13907.988281
6848.923434	0.097537	0.151451	14009.816406
6849.915323	1.010336	0.190925	429.392670
6849.916423	1.481352	0.190925	2058.880371
6849.917336	1.466140	0.190925	3397.466309
6849.918211	1.432672	0.190925	4651.054687
6849.919231	1.394202	0.190925	6073.140625
6849.920247	1.356248	0.190925	7451.087891
6849.921126	1.324713	0.190925	8615.510742
6849.921993	1.294581	0.190925	9737.913086
6849.923089	1.259952	0.190925	11118.820312
6849.924006	1.230908	0.190925	12247.563477
6849.924892	0.941210	0.190925	13081.475586
6849.925896	0.129357	0.190925	13211.349609
6849.926892	0.097321	0.190925	13308.281250
6849.927782	0.097445	0.190925	13395.007812
6849.928764	0.097518	0.190925	13490.770508
6849.929822	0.097570	0.190925	13593.999023
6849.930730	0.097507	0.190925	13682.536133
6849.931591	0.097500	0.190925	13766.483398
6849.932697	0.097573	0.190925	13874.399414
6849.933654	0.097485	0.190925	13967.693359
6849.934527	0.097471	0.190925	14052.785156
6850.970572	1.016312	0.153417	449.210022
6850.971445	1.473182	0.153417	1735.298096
6850.972551	1.466810	0.153417	3357.590332
6850.973553	1.428138	0.153417	4788.584961
6850.974438	1.394421	0.153417	6022.647949
6850.975452	1.357537	0.153417	7399.190430
6850.976501	1.321018	0.153417	8784.938477
6850.977389	1.290223	0.153417	9930.657227
6850.978291	1.260231	0.153417	11067.385742
6850.979393	1.226898	0.153417	12419.427734
6850.980347	0.703557	0.153417	13090.621094
6850.981207	0.107278	0.153417	13182.879883
6850.982217	0.097471	0.153417	13281.325195
6850.983259	0.097412	0.153417	13382.828125
6850.984142	0.097562	0.153417	13468.975586
6850.985080	0.097573	0.153417	13560.499023
6850.986142	0.097581	0.153417	13664.129883
6850.987085	0.097522	0.153417	13756.092773
6850.987948	0.097537	0.153417	13840.266602
6850.989008	0.097668	0.153417	13943.794922
6850.990027	0.097463	0.153417	14043.110352
6851.986433	1.059770	0.188713	522.466858
6851.987314	1.477405	0.188713	1824.060303
6851.988242	1.470516	0.188713	3188.699463
6851.989304	1.430746	0.188713	4708.151367
6851.990256	1.394216	0.188713	6035.445312
6851.991126	1.361408	0.188713	7219.870117
6851.992182	1.324889	0.188713	8618.953125
6851.993224	1.289773	0.188713	9962.896484
6851.994104	1.260692	0.188713	11072.305664
6851.995061	1.231106	0.188713	12250.473633
6851.996133	0.726273	0.188713	13029.038086
6851.997049	0.105406	0.188713	13125.590820
6851.997918	0.097460	0.188713	13210.283203
6851.998966	0.097610	0.188713	13312.578125
6851.999979	0.097456	0.188713	13411.300781
6852.000868	0.097504	0.188713	13497.981445
6852.001838	0.097625	0.188713	13592.676758
6852.002877	0.097500	0.188713	13693.979492
6852.003798	0.097493	0.188713	13783.770508
6852.004658	0.097504	0.188713	13867.624023
6852.005763	0.097570	0.188713	13975.438477
6853.039647	1.077601	0.151947	554.964661
6853.040524	1.478628	0.151947	1851.721436
6853.041441	1.470143	0.151947	3199.842285
6853.042506	1.429947	0.151947	4722.736328
6853.043462	1.393407	0.151947	6054.833496
6853.044331	1.361320	0.151947	7237.820312
6853.045380	1.324468	0.151947	8627.187500
6853.046411	1.289678	0.151947	9956.845703
6853.047300	1.260428	0.151947	11077.366211
6853.048239	1.231278	0.151947	12233.536133
6853.049318	0.724951	0.151947	13015.758789
6853.050229	0.105747	0.151947	13112.094727
6853.051097	0.097394	0.151947	13196.632812
6853.052151	0.097507	0.151947	13299.405273
6853.053161	0.097386	0.151947	13397.765625
6853.054047	0.097375	0.151947	13484.040039
6853.055008	0.097511	0.151947	13577.748047
6853.056046	0.097474	0.151947	13678.926758
6853.056977	0.097302	0.151947	13769.515625
6853.057837	0.097401	0.151947	13853.280273
6853.058934	0.097592	0.151947	13960.337891
6854.056425	1.048795	0.186179	485.592194
6854.057310	1.476002	0.186179	1791.854126
6854.058315	1.469308	0.186179	3268.508301
6854.059357	1.429468	0.186179	4758.013672
6854.060268	1.394033	0.186179	6027.978027
6854.061133	1.361060	0.186179	7205.294434
6854.062230	1.323688	0.186179	8657.379883
6854.063227	1.289531	0.186179	9943.042969
6854.064114	1.260872	0.186179	11061.435547
6854.065125	1.229777	0.186179	12304.740234
6854.066189	0.693098	0.186179	13042.196289
6854.067065	0.105377	0.186179	13134.506836
6854.067953	0.097493	0.186179	13221.080078
6854.069042	0.097529	0.186179	13327.289062
6854.070006	0.097412	0.186179	13421.194336
6854.070873	0.097555	0.186179	13505.774414
6854.071886	0.097562	0.186179	13604.605469
6854.072931	0.097500	0.186179	13706.493164
6854.073822	0.097463	0.186179	13793.333008
6854.074756	0.097599	0.186179	13884.490234
6854.075827	0.097493	0.186179	13988.905273
6855.108535	1.004894	0.154150	425.070068
6855.109588	1.480917	0.154150	1984.475342
6855.110487	1.468315	0.154150	3304.490967
6855.111366	1.434924	0.154150	4565.789551
6855.112345	1.397900	0.154150	5934.333984
6855.113310	1.362184	0.154150	7248.841309
6855.114188	1.330247	0.154150	8416.797852
6855.115137	1.298251	0.154150	9648.837891
6855.116205	1.263571	0.154150	10998.331055
6855.117082	1.235325	0.154150	12081.710937
6855.117954	1.067076	0.154150	13012.201172
6855.119017	0.142551	0.154150	13163.733398
6855.119952	0.097343	0.154150	13254.749023
6855.120828	0.097504	0.154150	13340.162109
6855.121751	0.097577	0.154150	13430.225586
6855.122805	0.097471	0.154150	13532.959961
6855.123698	0.097540	0.154150	13620.063477
6855.124560	0.097441	0.154150	13704.057617
6855.125607	0.097588	0.154150	13806.232422
6855.126567	0.097482	0.154150	13899.814453
6855.127437	0.097511	0.154150	13984.649414
6856.126410	1.000437	0.189353	435.190094
6856.127278	1.472567	0.189353	1713.378296
6856.128142	1.475295	0.189353	2988.033691
6856.129196	1.436909	0.189353	4502.536133
6856.130098	1.400797	0.189353	5766.055176
6856.131013	1.367260	0.189353	7017.097656
6856.131874	1.335015	0.189353	8166.545410
6856.132948	1.299888	0.189353	9562.625000
6856.133821	1.270734	0.189353	10671.975586
6856.134699	1.242707	0.189353	11763.072266
6856.135697	1.137198	0.189353	12897.996094
6856.136635	0.221246	0.189353	13105.525391
6856.137528	0.097317	0.189353	13192.429687
6856.138506	0.097544	0.189353	13287.828125
6856.139527	0.097365	0.189353	13387.237305
6856.140413	0.097419	0.189353	13473.550781
6856.141273	0.097427	0.189353	13557.337891
6856.142350	0.097401	0.189353	13662.239258
6856.143280	0.097427	0.189353	13752.845703
6856.144154	0.097361	0.189353	13837.939453
6856.145129	0.097515	0.189353	13933.016602
6857.180605	0.994537	0.155218	422.678345
6857.181634	1.478313	0.155218	1943.862427
6857.182667	1.464225	0.155218	3456.406738
6857.183565	1.429706	0.155218	4740.282715
6857.184524	1.393411	0.155218	6076.563477
6857.185593	1.354017	0.155218	7524.007812
6857.186521	1.320883	0.155218	8749.787109
6857.187388	1.291293	0.155218	9869.337891
6857.188456	1.257308	0.155218	11212.143555
6857.189461	1.225953	0.155218	12444.226562
6857.190363	0.737216	0.155218	13109.195312
6857.191340	0.108413	0.155218	13215.115234
6857.192394	0.097445	0.155218	13317.822266
6857.193290	0.097529	0.155218	13405.208984
6857.194145	0.097588	0.155218	13488.646484
6857.195243	0.097738	0.155218	13595.962891
6857.196232	0.097566	0.155218	13692.456055
6857.197107	0.097394	0.155218	13777.675781
6857.198117	0.097654	0.155218	13876.305664
6857.199160	0.097573	0.155218	13978.074219
6857.200034	0.097467	0.155218	14063.260742
6858.192870	1.037970	0.192488	470.200378
6858.193751	1.475522	0.192488	1770.135498
6858.194610	1.472347	0.192488	3034.881836
6858.195725	1.433064	0.192488	4632.748047
6858.196615	1.397937	0.192488	5876.912109
6858.197486	1.366047	0.192488	7066.739258
6858.198551	1.327676	0.192488	8480.713867
6858.199538	1.294772	0.192488	9758.653320
6858.200416	1.265764	0.192488	10869.994141
6858.201281	1.237214	0.192488	11940.184570
6858.202428	0.923785	0.192488	12999.766602
6858.203317	0.129807	0.192488	13115.165039
6858.204176	0.097449	0.192488	13198.873047
6858.205225	0.097676	0.192488	13301.334961
6858.206206	0.097478	0.192488	13396.960937
6858.207081	0.097511	0.192488	13482.283203
6858.207946	0.097482	0.192488	13566.604492
6858.209069	0.097573	0.192488	13676.179687
6858.209947	0.097386	0.192488	13761.684570
6858.210803	0.097544	0.192488	13845.182617
6858.211905	0.097610	0.192488	13952.749023
6859.251734	1.081897	0.152768	547.439880
6859.252698	1.482078	0.152768	1976.162598
6859.253584	1.468634	0.152768	3277.372314
6859.254594	1.430002	0.152768	4721.674805
6859.255657	1.389591	0.152768	6198.810059
6859.256552	1.356834	0.152768	7413.176270
6859.257444	1.324413	0.152768	8594.552734
6859.258539	1.287711	0.152768	10004.596680
6859.259506	1.256788	0.152768	11219.911133
6859.260376	1.229846	0.152768	12289.876953
6859.261437	0.691150	0.152768	13023.187500
6859.262466	0.100983	0.152768	13127.098633
6859.263359	0.097350	0.152768	13214.032227
6859.264312	0.097573	0.152768	13307.019531
6859.265354	0.097566	0.152768	13408.683594
6859.266290	0.097471	0.152768	13499.916016
6859.267152	0.097441	0.152768	13583.910156
6859.268232	0.097606	0.152768	13689.325195
6859.269247	0.097515	0.152768	13788.302734
6859.270129	0.097551	0.152768	13874.342773
6859.271115	0.097507	0.152768	13970.485352
6860.261409	1.084420	0.193261	551.969849
6860.262423	1.482748	0.193261	2055.476074
6860.263316	1.466378	0.193261	3364.951660
6860.264293	1.429241	0.193261	4761.319824
6860.265365	1.387998	0.193261	6249.253906
6860.266293	1.354098	0.193261	7505.856445
6860.267164	1.323029	0.193261	8658.214844
6860.268252	1.286572	0.193261	10058.005859
6860.269251	1.254115	0.193261	11310.867187
6860.270143	1.226807	0.193261	12405.178711
6860.271137	0.664863	0.193261	13066.052734
6860.272196	0.100378	0.193261	13172.353516
6860.273092	0.097452	0.193261	13259.670898
6860.273954	0.097427	0.193261	13343.652344
6860.275054	0.097628	0.193261	13451.042969
6860.276014	0.097416	0.193261	13544.562500
6860.276876	0.097518	0.193261	13628.623047
6860.277922	0.097581	0.193261	13730.692383
6860.278963	0.097423	0.193261	13832.109375
6860.279843	0.097357	0.193261	13917.783203
6860.280773	0.097621	0.193261	14008.570312
6861.322706	1.012068	0.154404	445.309875
6861.323570	1.473164	0.154404	1718.123535
6861.324649	1.468088	0.154404	3302.190918
6861.325673	1.428889	0.154404	4765.373535
6861.326553	1.394539	0.154404	5992.567383
6861.327536	1.358679	0.154404	7328.148926
6861.328607	1.321274	0.154404	8743.233398
6861.329513	1.289780	0.154404	9911.774414
6861.330384	1.260513	0.154404	11009.680664
6861.331490	1.227502	0.154404	12367.297852
6861.332497	0.658546	0.154404	13030.454102
6861.333392	0.103810	0.154404	13123.364258
6861.334377	0.097522	0.154404	13219.423828
6861.335434	0.097489	0.154404	13322.469727
6861.336318	0.097452	0.154404	13408.617187
6861.337185	0.097489	0.154404	13493.140625
6861.338299	0.097599	0.154404	13601.866211
6861.339260	0.097467	0.154404	13695.532227
6861.340129	0.097441	0.154404	13780.208984
6861.341197	0.097687	0.154404	13884.538086
6861.342228	0.097551	0.154404	13985.113281
6862.327322	1.041130	0.194385	542.428955
6862.328385	1.482129	0.194385	2117.931885
6862.329319	1.462961	0.194385	3484.337891
6862.330184	1.428882	0.194385	4720.320312
6862.331254	1.388818	0.194385	6206.355957
6862.332277	1.351582	0.194385	7589.024414
6862.333150	1.320718	0.194385	8742.010742
6862.334128	1.287733	0.194385	10001.414062
6862.335189	1.253569	0.194385	11331.451172
6862.336103	1.225078	0.194385	12451.172852
6862.336983	0.710273	0.194385	13076.213867
6862.338089	0.100635	0.194385	13187.515625
6862.339056	0.097361	0.194385	13281.663086
6862.339939	0.097478	0.194385	13367.736328
6862.340941	0.097515	0.194385	13465.446289
6862.341999	0.097625	0.194385	13568.733398
6862.342883	0.097467	0.194385	13654.894531
6862.343746	0.097581	0.194385	13739.106445
6862.344864	0.097522	0.194385	13848.135742
6862.345826	0.097482	0.194385	13941.913086
6862.346686	0.097478	0.194385	14025.744141
6863.395376	1.102141	0.152599	579.726257
6863.396259	1.479628	0.152599	1886.237549
6863.397140	1.470791	0.152599	3182.004395
6863.398105	1.434891	0.152599	4566.674805
6863.399072	1.397380	0.152599	5917.941406
6863.399984	1.363191	0.152599	7161.171875
6863.400867	1.331957	0.152599	8337.290039
6863.401913	1.296965	0.152599	9693.916016
6863.402818	1.266962	0.152599	10840.516602
6863.403698	1.239038	0.152599	11930.870117
6863.404607	1.081285	0.152599	12913.758789
6863.405642	0.163806	0.152599	13083.297852
6863.406530	0.097313	0.152599	13169.711914
6863.407386	0.097515	0.152599	13253.184570
6863.408485	0.097474	0.152599	13360.308594
6863.409366	0.097412	0.152599	13446.128906
6863.410242	0.097478	0.152599	13531.519531
6863.411214	0.097573	0.152599	13626.360352
6863.412215	0.097445	0.152599	13723.903320
6863.413105	0.097504	0.152599	13810.681641
6863.413966	0.097606	0.152599	13894.720703
6864.394767	1.062528	0.192411	537.639221
6864.395696	1.480276	0.192411	1912.815430
6864.396564	1.470443	0.192411	3189.160156
6864.397627	1.430083	0.192411	4709.338379
6864.398650	1.390829	0.192411	6132.156250
6864.399549	1.357595	0.192411	7352.634277
6864.400524	1.324164	0.192411	8643.694336
6864.401576	1.288466	0.192411	9999.160156
6864.402495	1.258132	0.192411	11155.383789
6864.403363	1.230483	0.192411	12223.443359
6864.404452	0.719967	0.192411	13007.487305
6864.405458	0.102327	0.192411	13110.427734
6864.406333	0.097467	0.192411	13195.710937
6864.407338	0.097500	0.192411	13293.698242
6864.408401	0.097551	0.192411	13397.395508
6864.409293	0.097485	0.192411	13484.352539
6864.410149	0.097537	0.192411	13567.843750
6864.411250	0.097621	0.192411	13675.324219
6864.412206	0.097493	0.192411	13768.527344
6864.413113	0.097467	0.192411	13856.929687
6864.414001	0.097405	0.192411	13943.424805
6865.464848	1.064520	0.154629	540.776306
6865.465752	1.479514	0.154629	1878.257080
6865.466620	1.470363	0.154629	3154.531738
6865.467700	1.430717	0.154629	4699.705566
6865.468694	1.392012	0.154629	6083.365234
6865.469593	1.359298	0.154629	7305.374023
6865.470619	1.323970	0.154629	8663.766602
6865.471674	1.288187	0.154629	10022.804687
6865.472560	1.258440	0.154629	11137.782227
6865.473429	1.230615	0.154629	12207.186523
6865.474538	0.712537	0.154629	12997.389648
6865.475483	0.104044	0.154629	13095.710937
6865.476340	0.097478	0.154629	13179.250000
6865.477408	0.097617	0.154629	13283.504883
6865.478450	0.097515	0.154629	13385.115234
6865.479320	0.097537	0.154629	13469.971680
6865.480239	0.097515	0.154629	13559.587891
6865.481315	0.097533	0.154629	13664.533203
6865.482250	0.097573	0.154629	13755.764648
6865.483118	0.097478	0.154629	13840.375977
6865.484147	0.097661	0.154629	13940.869141
6866.463668	1.002847	0.194026	419.189880
6866.464755	1.480635	0.194026	2028.639893
6866.465682	1.465752	0.194026	3387.391846
6866.466563	1.432178	0.194026	4649.140625
6866.467555	1.394465	0.194026	6032.450195
6866.468567	1.356877	0.194026	7405.610352
6866.469463	1.325248	0.194026	8593.032227
6866.470329	1.294878	0.194026	9714.396484
6866.471446	1.259864	0.194026	11121.665039
6866.472371	1.230714	0.194026	12260.075195
6866.473261	0.932560	0.194026	13090.053711
6866.474274	0.127416	0.194026	13219.125977
6866.475266	0.097441	0.194026	13315.788086
6866.476135	0.097515	0.194026	13400.528320
6866.477132	0.097603	0.194026	13497.837891
6866.478171	0.097515	0.194026	13599.155273
6866.479064	0.097397	0.194026	13686.130859
6866.479920	0.097540	0.194026	13769.625000
6866.481002	0.097562	0.194026	13875.187500
6866.481997	0.097357	0.194026	13972.057617
6866.482880	0.097500	0.194026	14058.150391
6867.535311	1.007747	0.150045	446.431732
6867.536179	1.472944	0.150045	1724.947510
6867.537214	1.469260	0.150045	3245.631836
6867.538255	1.429904	0.150045	4734.161133
6867.539139	1.395465	0.150045	5967.751953
6867.540088	1.360569	0.150045	7258.931641
6867.541164	1.322893	0.150045	8682.364258
6867.542105	1.290926	0.150045	9897.125977
6867.542973	1.261893	0.150045	10992.449219
6867.544029	1.228967	0.150045	12290.238281
6867.545056	0.712130	0.150045	13021.595703
6867.545954	0.106263	0.150045	13117.020508
6867.546933	0.097551	0.150045	13212.523437
6867.547981	0.097599	0.150045	13314.806641
6867.548898	0.097515	0.150045	13404.227539
6867.549761	0.097559	0.150045	13488.420898
6867.550847	0.097690	0.150045	13594.512695
6867.551838	0.097471	0.150045	13691.106445
6867.552730	0.097573	0.150045	13778.141602
6867.553713	0.097650	0.150045	13874.131836
6867.554773	0.097588	0.150045	13977.575195
6868.534301	1.085237	0.196314	565.408386
6868.535262	1.481481	0.196314	1989.111328
6868.536131	1.468707	0.196314	3265.417969
6868.537187	1.428853	0.196314	4774.286133
6868.538213	1.389320	0.196314	6199.728516
6868.539113	1.356661	0.196314	7420.723633
6868.540077	1.323029	0.196314	8696.123047
6868.541151	1.286572	0.196314	10077.901367
6868.542070	1.256675	0.196314	11232.785156
6868.542936	1.228960	0.196314	12297.064453
6868.544024	0.662062	0.196314	13017.387695
6868.545034	0.100631	0.196314	13119.025391
6868.545907	0.097401	0.196314	13204.056641
6868.546901	0.097471	0.196314	13300.942383
6868.547948	0.097540	0.196314	13403.067383
6868.548835	0.097526	0.196314	13489.572266
6868.549700	0.097544	0.196314	13573.948242
6868.550776	0.097529	0.196314	13678.889648
6868.551767	0.097559	0.196314	13775.570312
6868.552662	0.097485	0.196314	13862.819336
6868.553650	0.097610	0.196314	13959.257812
6869.603871	1.079509	0.149243	548.390686
6869.604865	1.482188	0.149243	2021.685059
6869.605763	1.466814	0.149243	3338.883789
6869.606756	1.429142	0.149243	4758.021484
6869.607831	1.388075	0.149243	6250.202148
6869.608743	1.354460	0.149243	7485.469727
6869.609610	1.322692	0.149243	8632.243164
6869.610721	1.286407	0.149243	10061.441406
6869.611682	1.255144	0.149243	11267.634766
6869.612572	1.227722	0.149243	12360.307617
6869.613570	0.693138	0.149243	13052.059570
6869.614627	0.101030	0.149243	13158.848633
6869.615516	0.097306	0.149243	13245.353516
6869.616405	0.097441	0.149243	13331.978516
6869.617491	0.097518	0.149243	13437.883789
6869.618439	0.097423	0.149243	13530.241211
6869.619301	0.097544	0.149243	13614.324219
6869.620332	0.097493	0.149243	13714.838867
6869.621372	0.097493	0.149243	13816.231445
6869.622251	0.097485	0.149243	13901.920898
6869.623174	0.097496	0.149243	13991.910156
6870.606259	1.008303	0.191658	421.470734
6870.607373	1.480876	0.191658	2071.167236
6870.608341	1.463602	0.191658	3487.934082
6870.609214	1.429863	0.191658	4736.204590
6870.610257	1.390071	0.191658	6186.048340
6870.611294	1.352457	0.191658	7588.546387
6870.612188	1.320538	0.191658	8769.107422
6870.613141	1.289040	0.191658	9997.562500
6870.614215	1.253844	0.191658	11344.190430
6870.615160	1.224701	0.191658	12501.533203
6870.616031	0.718433	0.191658	13127.288086
6870.617092	0.101909	0.191658	13235.414062
6870.618096	0.097408	0.191658	13333.211914
6870.618975	0.097423	0.191658	13418.846680
6870.619969	0.097518	0.191658	13515.780273
6870.621027	0.097485	0.191658	13618.919922
6870.621929	0.097441	0.191658	13706.812500
6870.622787	0.097485	0.191658	13790.455078
6870.623868	0.097599	0.191658	13895.958984
6870.624859	0.097434	0.191658	13992.516602
6870.625726	0.097412	0.191658	14076.972656
6871.668173	1.020410	0.152974	443.878418
6871.669065	1.474775	0.152974	1759.378052
6871.669933	1.474134	0.152974	3038.926758
6871.670962	1.436591	0.152974	4517.178711
6871.671858	1.400709	0.152974	5772.214355
6871.672769	1.366772	0.152974	7017.343750
6871.673651	1.333971	0.152974	8193.906250
6871.674699	1.299181	0.152974	9555.447266
6871.675597	1.269968	0.152974	10695.878906
6871.676478	1.242528	0.152974	11790.545898
6871.677461	1.137524	0.152974	12908.732422
6871.678406	0.214325	0.152974	13111.269531
6871.679326	0.097397	0.152974	13200.875000
6871.680188	0.097529	0.152974	13284.945312
6871.681223	0.097500	0.152974	13385.857422
6871.682103	0.097408	0.152974	13471.577148
6871.682976	0.097507	0.152974	13556.701172
6871.683934	0.097592	0.152974	13650.194336
6871.684927	0.097401	0.152974	13746.914062
6871.685793	0.097430	0.152974	13831.289062
6871.686712	0.097526	0.152974	13920.915039
6872.680980	1.059631	0.185539	535.113831
6872.681858	1.477998	0.185539	1832.796143
6872.682743	1.470505	0.185539	3134.193359
6872.683843	1.430072	0.185539	4707.272461
6872.684804	1.393297	0.185539	6046.230957
6872.685732	1.359679	0.185539	7308.013184
6872.686608	1.328141	0.185539	8471.464844
6872.687660	1.293274	0.185539	9831.989258
6872.688532	1.263801	0.185539	10934.024414
6872.689410	1.236138	0.185539	12019.353516
6872.690297	1.013708	0.185539	12918.512695
6872.691355	0.134824	0.185539	13061.156250
6872.692255	0.097313	0.185539	13148.738281
6872.693126	0.097408	0.185539	13233.581055
6872.694121	0.097548	0.185539	13330.640625
6872.695044	0.097540	0.185539	13420.669922
6872.695962	0.097504	0.185539	13510.178711
6872.696825	0.097405	0.185539	13594.239258
6872.697861	0.097507	0.185539	13695.256836
6872.698741	0.097504	0.185539	13781.060547
6872.699605	0.097471	0.185539	13865.275391
6873.733726	1.113896	0.163057	624.895935
6873.734690	1.482660	0.163057	2054.180176
6873.735556	1.467224	0.163057	3324.796387
6873.736447	1.431588	0.163057	4600.341309
6873.737572	1.390426	0.163057	6164.570312
6873.738469	1.356969	0.163057	7381.771484
6873.739401	1.324006	0.163057	8615.745117
6873.740473	1.287968	0.163057	9996.446289
6873.741420	1.257627	0.163057	11187.418945
6873.742289	1.230150	0.163057	12256.419922
6873.743331	0.739995	0.163057	13027.495117
6873.744359	0.102418	0.163057	13132.781250
6873.745245	0.097434	0.163057	13219.107422
6873.746201	0.097474	0.163057	13312.292969
6873.747269	0.097511	0.163057	13416.434570
6873.748198	0.097485	0.163057	13506.998047
6873.749060	0.097522	0.163057	13591.061523
6873.750127	0.097731	0.163057	13695.339844
6873.751124	0.097518	0.163057	13792.565430
6873.752016	0.097544	0.163057	13879.574219
6873.752994	0.097665	0.163057	13975.090820
6874.751934	0.999221	0.193938	428.665863
6874.752801	1.471769	0.193938	1704.689453
6874.753901	1.467411	0.193938	3318.841309
6874.754830	1.431628	0.193938	4648.824219
6874.755709	1.398102	0.193938	5877.755859
6874.756716	1.361177	0.193938	7248.460937
6874.757721	1.325306	0.193938	8580.393555
6874.758602	1.294918	0.193938	9721.216797
6874.759612	1.263047	0.193938	10996.894531
6874.760653	1.230124	0.193938	12277.454102
6874.761559	0.885945	0.193938	13080.120117
6874.762416	0.127291	0.193938	13189.208984
6874.763505	0.097463	0.193938	13295.346680
6874.764491	0.097452	0.193938	13391.434570
6874.765375	0.097551	0.193938	13477.669922
6874.766367	0.097683	0.193938	13574.571289
6874.767424	0.097584	0.193938	13677.717773
6874.768309	0.097438	0.193938	13763.950195
6874.769177	0.097489	0.193938	13848.570312
6874.770284	0.097544	0.193938	13956.551758
6874.771242	0.097485	0.193938	14049.942383
6875.802632	1.034209	0.163173	521.241333
6875.803689	1.481484	0.163173	2087.170410
6875.804620	1.463763	0.163173	3449.934082
6875.805484	1.430061	0.163173	4685.506836
6875.806560	1.389558	0.163173	6180.671387
6875.807588	1.351901	0.163173	7570.425293
6875.808469	1.320608	0.163173	8733.880859
6875.809446	1.288107	0.163173	9992.361328
6875.810525	1.253727	0.163173	11345.132812
6875.811422	1.225353	0.163173	12444.274414
6875.812299	0.720406	0.163173	13076.071289
6875.813384	0.101320	0.163173	13186.002930
6875.814379	0.097452	0.163173	13282.967773
6875.815272	0.097518	0.163173	13370.051758
6875.816256	0.097500	0.163173	13465.992187
6875.817322	0.097507	0.163173	13569.934570
6875.818215	0.097548	0.163173	13657.044922
6875.819101	0.097518	0.163173	13743.446289
6875.820206	0.097628	0.163173	13851.325195
6875.821168	0.097504	0.163173	13945.124023
6875.822034	0.097401	0.163173	14029.473633
6876.820504	1.064224	0.200448	545.946716
6876.821390	1.478394	0.200448	1855.803467
6876.822254	1.470139	0.200448	3126.003662
6876.823370	1.429889	0.200448	4721.759766
6876.824326	1.393037	0.200448	6053.502930
6876.825186	1.361148	0.200448	7224.089844
6876.826243	1.323530	0.200448	8623.061523
6876.827317	1.288253	0.200448	10006.645508
6876.828193	1.258832	0.200448	11109.381836
6876.829127	1.229802	0.200448	12258.017578
6876.830214	0.679951	0.200448	12997.124023
6876.831147	0.103180	0.200448	13093.390625
6876.832011	0.097383	0.200448	13177.529297
6876.833055	0.097566	0.200448	13279.387695
6876.834077	0.097522	0.200448	13379.054687
6876.834967	0.097427	0.200448	13465.764648
6876.835926	0.097628	0.200448	13559.389648
6876.836984	0.097595	0.200448	13662.645508
6876.837908	0.097397	0.200448	13752.640625
6876.838766	0.097441	0.200448	13836.245117
6876.839834	0.097610	0.200448	13940.492187
6877.877717	1.018766	0.154581	450.294495
6877.878583	1.473215	0.154581	1726.098877
6877.879646	1.467924	0.154581	3286.501465
6877.880673	1.429021	0.154581	4754.105957
6877.881559	1.394337	0.154581	5989.488770
6877.882562	1.358716	0.154581	7352.280762
6877.883623	1.320916	0.154581	8753.772461
6877.884538	1.289802	0.154581	9933.941406
6877.885402	1.260853	0.154581	11023.318359
6877.886486	1.228077	0.154581	12354.554687
6877.887492	0.690106	0.154581	13048.801758
6877.888364	0.105645	0.154581	13140.923828
6877.889367	0.097562	0.154581	13238.778320
6877.890412	0.097522	0.154581	13340.688477
6877.891309	0.097570	0.154581	13428.208008
6877.892172	0.097610	0.154581	13512.445312
6877.893279	0.097606	0.154581	13620.495117
6877.894242	0.097482	0.154581	13714.370117
6877.895148	0.097496	0.154581	13802.702148
6877.896022	0.097504	0.154581	13887.919922
6877.897108	0.097551	0.154581	13993.860352
6878.884309	1.017411	0.199747	451.730438
6878.885175	1.473171	0.199747	1727.496826
6878.886235	1.467964	0.199747	3283.538574
6878.887258	1.429043	0.199747	4745.449219
6878.888136	1.394843	0.199747	5970.121094
6878.889117	1.358822	0.199747	7303.125488
6878.890190	1.321483	0.199747	8721.077148
6878.891099	1.289971	0.199747	9893.660156
6878.891970	1.260809	0.199747	10991.825195
6878.893063	1.227795	0.199747	12333.805664
6878.894072	0.688726	0.199747	13028.729492
6878.894960	0.105421	0.199747	13122.343750
6878.895939	0.097555	0.199747	13217.849609
6878.896995	0.097504	0.199747	13320.813477
6878.897893	0.097507	0.199747	13408.375000
6878.898759	0.097581	0.199747	13492.879883
6878.899867	0.097632	0.199747	13601.055664
6878.900823	0.097518	0.199747	13694.283203
6878.901689	0.097482	0.199747	13778.702148
6878.902762	0.097636	0.199747	13883.464844
6878.903791	0.097474	0.199747	13983.765625
6879.950353	1.069201	0.156370	534.600281
6879.951233	1.477862	0.156370	1835.119141
6879.952100	1.471860	0.156370	3111.222168
6879.953144	1.432189	0.156370	4606.427246
6879.954110	1.395355	0.156370	5954.340332
6879.954992	1.362609	0.156370	7156.161133
6879.955924	1.330269	0.156370	8395.971680
6879.956994	1.293765	0.156370	9780.299805
6879.957887	1.264460	0.156370	10909.462891
6879.958752	1.236958	0.156370	11979.431641
6879.959803	0.950259	0.156370	12978.153320
6879.960759	0.130551	0.156370	13102.959961
6879.961627	0.097449	0.156370	13187.545898
6879.962532	0.097577	0.156370	13275.852539
6879.963621	0.097511	0.156370	13382.041992
6879.964493	0.097493	0.156370	13467.055664
6879.965376	0.097537	0.156370	13553.180664
6879.966457	0.097496	0.156370	13658.574219
6879.967404	0.097412	0.156370	13750.823242
6879.968270	0.097496	0.156370	13835.254883
6879.969283	0.097632	0.156370	13934.156250
6880.949768	1.061448	0.195424	528.600952
6880.950708	1.480049	0.195424	1919.846802
6880.951580	1.469952	0.195424	3201.645508
6880.952648	1.429559	0.195424	4728.415039
6880.953672	1.390616	0.195424	6152.406250
6880.954568	1.357006	0.195424	7368.283203
6880.955496	1.324750	0.195424	8597.650391
6880.956369	1.294299	0.195424	9727.573242
6880.957372	1.262710	0.195424	10994.071289
6880.958303	1.233633	0.195424	12142.583008
6880.959173	1.029858	0.195424	13038.559570
6880.960219	0.134817	0.195424	13179.578125
6880.961088	0.097423	0.195424	13264.239258
6880.961962	0.097665	0.195424	13349.598633
6880.962846	0.097625	0.195424	13435.898437
6880.963870	0.097551	0.195424	13535.791016
6880.964788	0.097577	0.195424	13625.366211
6880.965668	0.097621	0.195424	13711.272461
6880.966679	0.097657	0.195424	13810.003906
6880.967594	0.097537	0.195424	13899.250000
6880.968468	0.097573	0.195424	13984.529297
6882.019349	1.069054	0.164048	540.941345
6882.020356	1.482045	0.164048	2033.360352
6882.021229	1.467220	0.164048	3314.243652
6882.022225	1.429252	0.164048	4737.778320
6882.023286	1.388701	0.164048	6211.190430
6882.024190	1.355328	0.164048	7436.407227
6882.025057	1.323497	0.164048	8583.878906
6882.026180	1.286719	0.164048	10028.864258
6882.027157	1.255741	0.164048	11255.723633
6882.028031	1.228605	0.164048	12329.524414
6882.029056	0.686334	0.164048	13033.016602
6882.030100	0.100814	0.164048	13138.266602
6882.030990	0.097592	0.164048	13225.123047
6882.031909	0.097566	0.164048	13314.786133
6882.032982	0.097592	0.164048	13419.501953
6882.033937	0.097529	0.164048	13512.642578
6882.034801	0.097460	0.164048	13596.847656
6882.035860	0.097555	0.164048	13700.158203
6882.036867	0.097544	0.164048	13798.384766
6882.037756	0.097515	0.164048	13885.075195
6882.038705	0.097632	0.164048	13977.727539
6883.019349	1.129508	0.199400	656.244141
6883.020331	1.483238	0.199400	2112.784180
6883.021260	1.463507	0.199400	3472.382324
6883.022126	1.429065	0.199400	4709.952637
6883.023241	1.388683	0.199400	6258.333984
6883.024133	1.355533	0.199400	7467.469727
6883.024997	1.323274	0.199400	8610.778320
6883.026110	1.287103	0.199400	10043.324219
6883.027079	1.255950	0.199400	11260.339844
6883.027948	1.228953	0.199400	12328.299805
6883.029019	0.667888	0.199400	13043.608398
6883.030051	0.100686	0.199400	13147.516602
6883.030924	0.097533	0.199400	13232.663086
6883.031859	0.097507	0.199400	13323.832031
6883.032908	0.097595	0.199400	13426.208984
6883.033842	0.097427	0.199400	13517.206055
6883.034706	0.097456	0.199400	13601.408203
6883.035750	0.097570	0.199400	13703.270508
6883.036771	0.097430	0.199400	13802.747070
6883.037659	0.097496	0.199400	13889.324219
6883.038609	0.097592	0.199400	13982.036133
6884.090325	1.013386	0.155443	450.956879
6884.091190	1.472893	0.155443	1725.009399
6884.092230	1.468663	0.155443	3252.419434
6884.093273	1.429417	0.155443	4743.300781
6884.094158	1.394762	0.155443	5977.665039
6884.095092	1.360364	0.155443	7248.244629
6884.096183	1.322479	0.155443	8691.069336
6884.097111	1.290385	0.155443	9888.545898
6884.097986	1.261549	0.155443	10992.401367
6884.099043	1.229150	0.155443	12291.613281
6884.100067	0.717349	0.155443	13026.178711
6884.100955	0.106904	0.155443	13121.109375
6884.101933	0.097500	0.155443	13216.464844
6884.102978	0.097570	0.155443	13318.424805
6884.103898	0.097423	0.155443	13408.053711
6884.104759	0.097584	0.155443	13492.074219
6884.105844	0.097734	0.155443	13598.116211
6884.106840	0.097555	0.155443	13695.281250
6884.107724	0.097419	0.155443	13781.400391
6884.108711	0.097636	0.155443	13877.766602
6884.109767	0.097646	0.155443	13980.880859
6885.088838	1.106045	0.201966	605.006531
6885.089876	1.482759	0.201966	2144.110107
6885.090763	1.464251	0.201966	3442.900391
6885.091715	1.427673	0.201966	4802.045410
6885.092802	1.386332	0.201966	6308.988281
6885.093716	1.352388	0.201966	7545.070312
6885.094590	1.320773	0.201966	8699.425781
6885.095648	1.286041	0.201966	10060.057617
6885.096657	1.253562	0.201966	11324.901367
6885.097554	1.225928	0.201966	12424.558594
6885.098536	0.656276	0.201966	13069.021484
6885.099591	0.100221	0.201966	13174.754883
6885.100498	0.097544	0.201966	13263.227539
6885.101359	0.097478	0.201966	13347.156250
6885.102464	0.097540	0.201966	13454.938477
6885.103460	0.097482	0.201966	13552.030273
6885.104353	0.097460	0.201966	13639.061523
6885.105339	0.097606	0.201966	13735.300781
6885.106390	0.097507	0.201966	13837.781250
6885.107277	0.097460	0.201966	13924.227539
6885.108149	0.097617	0.201966	14009.349609
6886.160835	1.001206	0.149235	428.516174
6886.161826	1.474563	0.149235	1889.808105
6886.162894	1.463932	0.149235	3453.287354
6886.163807	1.428490	0.149235	4757.499023
6886.164671	1.393535	0.149235	5961.513672
6886.165783	1.354105	0.149235	7467.278809
6886.166760	1.320410	0.149235	8757.319336
6886.167629	1.290970	0.149235	9879.172852
6886.168646	1.258077	0.149235	11158.637695
6886.169698	1.225690	0.149235	12448.063477
6886.170596	0.729470	0.149235	13103.127930
6886.171472	0.107783	0.149235	13197.545898
6886.172381	0.097544	0.149235	13286.212891
6886.173397	0.097372	0.149235	13385.142578
6886.174302	0.097379	0.149235	13473.270508
6886.175171	0.097438	0.149235	13557.944336
6886.176189	0.097471	0.149235	13657.169922
6886.177078	0.097427	0.149235	13743.782227
6886.177978	0.097496	0.149235	13831.529297
6886.178853	0.097522	0.149235	13916.861328
6886.179895	0.097434	0.149235	14018.387695
6887.159305	1.060287	0.199501	530.143433
6887.160220	1.479185	0.199501	1883.597290
6887.161085	1.470073	0.199501	3155.210449
6887.162183	1.429321	0.199501	4724.605469
6887.163181	1.391045	0.199501	6112.868164
6887.164078	1.358174	0.199501	7331.150391
6887.165080	1.323376	0.199501	8657.173828
6887.166138	1.287473	0.199501	10019.320312
6887.167030	1.258363	0.199501	11141.780273
6887.167891	1.230260	0.199501	12201.034180
6887.169006	0.707802	0.199501	12990.232422
6887.169963	0.103326	0.199501	13089.116211
6887.170821	0.097463	0.199501	13172.740234
6887.171894	0.097500	0.199501	13277.357422
6887.172935	0.097482	0.199501	13378.835937
6887.173815	0.097489	0.199501	13464.625977
6887.174732	0.097482	0.199501	13554.016602
6887.175803	0.097551	0.199501	13658.494141
6887.176736	0.097357	0.199501	13749.328125
6887.177603	0.097412	0.199501	13833.784180
6887.178622	0.097522	0.199501	13933.159180
6888.228286	1.017810	0.150492	435.622711
6888.229407	1.481796	0.150492	2096.715576
6888.230306	1.465411	0.150492	3414.120605
6888.231172	1.432050	0.150492	4654.275391
6888.232192	1.392847	0.150492	6074.979004
6888.233166	1.357075	0.150492	7396.770508
6888.234043	1.326061	0.150492	8559.725586
6888.235080	1.291586	0.150492	9899.099609
6888.236118	1.257946	0.150492	11204.846680
6888.237000	1.229989	0.150492	12289.697266
6888.237885	0.846603	0.150492	13038.940430
6888.239001	0.108040	0.150492	13159.512695
6888.239951	0.097463	0.150492	13252.102539
6888.240808	0.097368	0.150492	13335.546875
6888.241836	0.097632	0.150492	13435.912109
6888.242876	0.097522	0.150492	13537.334961
6888.243767	0.097518	0.150492	13624.223633
6888.244700	0.097540	0.150492	13715.228516
6888.245768	0.097639	0.150492	13819.506836
6888.246704	0.097518	0.150492	13910.784180
6888.247566	0.097471	0.150492	13994.803711
6889.229790	1.016063	0.192613	454.180267
6889.230667	1.473420	0.192613	1746.369995
6889.231534	1.473622	0.192613	3024.000000
6889.232586	1.435433	0.192613	4534.075684
6889.233471	1.399391	0.192613	5772.536621
6889.234386	1.366047	0.192613	7022.469727
6889.235268	1.333088	0.192613	8198.253906
6889.236319	1.298822	0.192613	9563.316406
6889.237221	1.269016	0.192613	10707.968750
6889.238101	1.241378	0.192613	11800.381836
6889.239101	1.119488	0.192613	12919.870117
6889.240047	0.195406	0.192613	13104.724609
6889.240923	0.097397	0.192613	13190.044922
6889.241912	0.097485	0.192613	13286.458008
6889.242917	0.097394	0.192613	13384.338867
6889.243798	0.097489	0.192613	13470.226562
6889.244654	0.097496	0.192613	13553.683594
6889.245733	0.097533	0.192613	13658.921875
6889.246651	0.097511	0.192613	13748.436523
6889.247519	0.097485	0.192613	13833.053711
6889.248486	0.097544	0.192613	13927.378906
6890.296768	0.993578	0.153485	424.257751
6890.297651	1.471469	0.153485	1723.564453
6890.298780	1.465876	0.153485	3378.539062
6890.299725	1.428955	0.153485	4728.901367
6890.300602	1.395601	0.153485	5952.842773
6890.301633	1.357225	0.153485	7352.142090
6890.302669	1.321168	0.153485	8720.872070
6890.303561	1.290981	0.153485	9872.427734
6890.304523	1.260297	0.153485	11084.833008
6890.305582	1.226796	0.153485	12384.009766
6890.306525	0.733022	0.153485	13075.250000
6890.307390	0.109010	0.153485	13169.543945
6890.308465	0.097544	0.153485	13274.403320
6890.309464	0.097478	0.153485	13371.784180
6890.310354	0.097441	0.153485	13458.506836
6890.311307	0.097628	0.153485	13551.546875
6890.312358	0.097471	0.153485	13653.988281
6890.313282	0.097430	0.153485	13744.013672
6890.314141	0.097452	0.153485	13827.725586
6890.315211	0.097683	0.153485	13932.246094
6890.316212	0.097372	0.153485	14029.714844
6891.299312	1.049945	0.190320	501.873718
6891.300192	1.476075	0.190320	1800.820068
6891.301168	1.469403	0.190320	3234.957520
6891.302216	1.429354	0.190320	4732.920898
6891.303142	1.393433	0.190320	6023.239258
6891.304011	1.361708	0.190320	7206.563477
6891.305097	1.323450	0.190320	8643.830078
6891.306104	1.289176	0.190320	9942.030273
6891.307000	1.260443	0.190320	11071.387695
6891.307993	1.229736	0.190320	12292.515625
6891.309057	0.693864	0.190320	13030.786133
6891.309959	0.104191	0.190320	13124.766602
6891.310819	0.097522	0.190320	13208.635742
6891.311926	0.097577	0.190320	13316.653320
6891.312890	0.097416	0.190320	13410.562500
6891.313753	0.097474	0.190320	13494.682617
6891.314840	0.097548	0.190320	13600.716797
6891.315867	0.097496	0.190320	13700.845703
6891.316749	0.097511	0.190320	13786.850586
6891.317676	0.097515	0.190320	13877.247070
6891.318737	0.097529	0.190320	13980.725586
6892.364837	1.078385	0.157006	561.838562
6892.365874	1.482550	0.157006	2099.242920
6892.366755	1.465269	0.157006	3390.144531
6892.367746	1.428175	0.157006	4805.465820
6892.368808	1.387240	0.157006	6278.714844
6892.369724	1.353450	0.157006	7518.474609
6892.370587	1.321948	0.157006	8659.316406
6892.371680	1.286517	0.157006	10065.479492
6892.372678	1.253785	0.157006	11316.757812
6892.373558	1.226656	0.157006	12396.215820
6892.374555	0.657550	0.157006	13051.792969
6892.375593	0.100536	0.157006	13156.149414
6892.376496	0.097383	0.157006	13244.085937
6892.377355	0.097493	0.157006	13327.832031
6892.378457	0.097570	0.157006	13435.353516
6892.379427	0.097489	0.157006	13529.917969
6892.380329	0.097397	0.157006	13617.770508
6892.381221	0.097357	0.157006	13704.613281
6892.382227	0.097526	0.157006	13802.723633
6892.383144	0.097401	0.157006	13892.040039
6892.384066	0.097570	0.157006	13981.999023
6893.369784	0.988667	0.192467	415.240143
6893.370670	1.470472	0.192467	1718.078613
6893.371776	1.466169	0.192467	3339.662109
6893.372743	1.429446	0.192467	4721.936035
6893.373608	1.396077	0.192467	5929.542480
6893.374654	1.357782	0.192467	7349.782227
6893.375693	1.321553	0.192467	8722.875000
6893.376579	1.291318	0.192467	9866.983398
6893.377530	1.260890	0.192467	11066.089844
6893.378585	1.227327	0.192467	12360.919922
6893.379528	0.759005	0.192467	13076.662109
6893.380386	0.111676	0.192467	13172.480469
6893.381457	0.097581	0.192467	13276.989258
6893.382471	0.097386	0.192467	13375.739258
6893.383341	0.097397	0.192467	13460.474609
6893.384311	0.097445	0.192467	13554.996094
6893.385367	0.097529	0.192467	13657.987305
6893.386282	0.097412	0.192467	13747.119141
6893.387144	0.097474	0.192467	13831.141602
6893.388222	0.097588	0.192467	13936.341797
6893.389220	0.097449	0.192467	14033.595703
6894.436287	1.002876	0.158448	428.228058
6894.437157	1.471750	0.158448	1708.651001
6894.438153	1.470198	0.158448	3172.968018
6894.439157	1.432328	0.158448	4611.025391
6894.440052	1.397930	0.158448	5862.172852
6894.440917	1.364843	0.158448	7042.761719
6894.442038	1.326973	0.158448	8530.297852
6894.442948	1.295376	0.158448	9709.089844
6894.443815	1.265819	0.158448	10806.554687
6894.444910	1.232585	0.158448	12156.235352
6894.445895	0.908441	0.158448	13051.049805
6894.446754	0.131473	0.158448	13163.985352
6894.447784	0.097548	0.158448	13264.458984
6894.448821	0.097474	0.158448	13365.540039
6894.449704	0.097452	0.158448	13451.590820
6894.450580	0.097460	0.158448	13536.965820
6894.451678	0.097581	0.158448	13644.109375
6894.452625	0.097449	0.158448	13736.393555
6894.453483	0.097397	0.158448	13819.960937
6894.454515	0.097577	0.158448	13920.660156
6894.455584	0.097482	0.158448	14024.868164
6895.437749	0.995856	0.199984	419.255219
6895.438805	1.479781	0.199984	1981.904419
6895.439701	1.467825	0.199984	3297.075195
6895.440576	1.434364	0.199984	4552.143555
6895.441505	1.398545	0.199984	5851.391602
6895.442508	1.362056	0.199984	7217.533203
6895.443444	1.328683	0.199984	8461.180664
6895.444314	1.298778	0.199984	9591.117187
6895.445382	1.264728	0.199984	10941.846680
6895.446265	1.236119	0.199984	12033.339844
6895.447129	1.119569	0.199984	13000.647461
6895.448155	0.166923	0.199984	13171.910156
6895.449125	0.097306	0.199984	13266.296875
6895.449996	0.097452	0.199984	13351.177734
6895.450853	0.097361	0.199984	13434.616211
6895.451987	0.097496	0.199984	13545.176758
6895.452885	0.097408	0.199984	13632.649414
6895.453763	0.097471	0.199984	13718.228516
6895.454758	0.097537	0.199984	13815.277344
6895.455758	0.097423	0.199984	13912.700195
6895.456646	0.097581	0.199984	13999.351562
6896.506299	0.993329	0.155117	421.171448
6896.507269	1.471780	0.155117	1848.797852
6896.508342	1.464642	0.155117	3420.358887
6896.509265	1.429072	0.155117	4739.392578
6896.510138	1.394766	0.155117	5957.022949
6896.511208	1.355771	0.155117	7407.698242
6896.512219	1.320656	0.155117	8742.880859
6896.513115	1.290765	0.155117	9899.406250
6896.514105	1.258846	0.155117	11145.664062
6896.515176	1.225422	0.155117	12458.091797
6896.516095	0.690359	0.155117	13092.531250
6896.516958	0.106754	0.155117	13184.660156
6896.518069	0.097672	0.155117	13293.173828
6896.519037	0.097672	0.155117	13387.720703
6896.519906	0.097617	0.155117	13472.549805
6896.520948	0.097775	0.155117	13574.430664
6896.521991	0.097720	0.155117	13676.352539
6896.522886	0.097716	0.155117	13763.808594
6896.523805	0.097672	0.155117	13853.569336
6896.524864	0.097734	0.155117	13957.070312
6896.525802	0.097694	0.155117	14048.707031
6897.506746	1.008358	0.199324	426.535492
6897.507836	1.480199	0.199324	2039.952393
6897.508832	1.462522	0.199324	3496.624512
6897.509724	1.428472	0.199324	4770.821289
6897.510732	1.390162	0.199324	6172.104980
6897.511792	1.351725	0.199324	7604.933594
6897.512693	1.319846	0.199324	8794.115234
6897.513565	1.289110	0.199324	9918.218750
6897.514675	1.254452	0.199324	11310.660156
6897.515637	1.224752	0.199324	12488.872070
6897.516514	0.727584	0.199324	13126.962891
6897.517559	0.103458	0.199324	13235.077148
6897.518582	0.097621	0.199324	13334.943359
6897.519468	0.097566	0.199324	13421.386719
6897.520392	0.097639	0.199324	13511.605469
6897.521457	0.097679	0.199324	13615.633789
6897.522394	0.097621	0.199324	13707.104492
6897.523258	0.097636	0.199324	13791.461914
6897.524320	0.097800	0.199324	13895.326172
6897.525351	0.097577	0.199324	13995.927734
6897.526224	0.097603	0.199324	14081.134766
6898.575808	1.002437	0.154549	431.047699
6898.576675	1.471992	0.154549	1707.264893
6898.577773	1.466993	0.154549	3318.023682
6898.578770	1.428640	0.154549	4742.377930
6898.579671	1.394260	0.154549	5998.606445
6898.580680	1.357709	0.154549	7368.534668
6898.581737	1.321256	0.154549	8765.102539
6898.582642	1.289366	0.154549	9931.979492
6898.583535	1.259982	0.154549	11057.143555
6898.584630	1.226682	0.154549	12400.360352
6898.585585	0.709779	0.154549	13078.199219
6898.586442	0.108190	0.154549	13170.917969
6898.587488	0.097800	0.154549	13273.216797
6898.588505	0.097694	0.154549	13372.571289
6898.589387	0.097676	0.154549	13458.721680
6898.590335	0.097771	0.154549	13551.408203
6898.591403	0.097775	0.154549	13655.832031
6898.592338	0.097694	0.154549	13747.175781
6898.593233	0.097625	0.154549	13834.549805
6898.594111	0.097603	0.154549	13920.245117
6898.595131	0.097745	0.154549	14019.945312
6899.575754	1.019019	0.196890	441.235016
6899.576632	1.473171	0.196890	1734.679443
6899.577739	1.465818	0.196890	3357.339844
6899.578716	1.428428	0.196890	4752.913574
6899.579593	1.394659	0.196890	5976.029785
6899.580657	1.355816	0.196890	7418.617676
6899.581693	1.319758	0.196890	8785.887695
6899.582590	1.289436	0.196890	9942.511719
6899.583528	1.258791	0.196890	11123.257812
6899.584594	1.225818	0.196890	12429.979492
6899.585549	0.674729	0.196890	13074.345703
6899.586414	0.105590	0.196890	13165.680664
6899.587474	0.097646	0.196890	13269.185547
6899.588495	0.097705	0.196890	13368.942383
6899.589387	0.097712	0.196890	13456.101562
6899.590353	0.097753	0.196890	13550.530273
6899.591392	0.097778	0.196890	13652.122070
6899.592309	0.097518	0.196890	13741.545898
6899.593169	0.097712	0.196890	13825.578125
6899.594245	0.097811	0.196890	13930.823242
6899.595250	0.097712	0.196890	14029.024414
6900.646942	1.067443	0.153095	562.542236
6900.648004	1.482473	0.153095	2136.928711
6900.648925	1.462991	0.153095	3484.343262
6900.649795	1.428102	0.153095	4726.791992
6900.650899	1.387057	0.153095	6258.102539
6900.651899	1.350260	0.153095	7608.362305
6900.652800	1.318770	0.153095	8796.574219
6900.653797	1.285825	0.153095	10078.541992
6900.654861	1.251742	0.153095	11410.395508
6900.655759	1.223785	0.153095	12509.354492
6900.656678	0.647494	0.153095	13104.401367
6900.657556	0.103792	0.153095	13195.530273
6900.658534	0.097482	0.153095	13290.867187
6900.659490	0.097654	0.153095	13384.224609
6900.660381	0.097661	0.153095	13471.240234
6900.661372	0.097690	0.153095	13568.051758
6900.662274	0.097588	0.153095	13656.076172
6900.663194	0.097577	0.153095	13745.846680
6900.664056	0.097804	0.153095	13830.153320
6900.665089	0.097606	0.153095	13930.980469
6900.665983	0.097581	0.153095	14018.217773
6901.644300	1.062034	0.197386	537.389099
6901.645240	1.480082	0.197386	1928.665771
6901.646107	1.469806	0.197386	3202.987305
6901.647162	1.429874	0.197386	4711.504883
6901.648199	1.390298	0.197386	6153.243652
6901.649101	1.357218	0.197386	7377.454102
6901.650064	1.323409	0.197386	8651.897461
6901.651118	1.287825	0.197386	10009.264648
6901.652053	1.257726	0.197386	11185.238281
6901.652918	1.230048	0.197386	12249.229492
6901.654009	0.696790	0.197386	13009.426758
6901.655009	0.101982	0.197386	13111.409180
6901.655885	0.097599	0.197386	13196.906250
6901.656881	0.097734	0.197386	13294.250000
6901.657928	0.097657	0.197386	13396.497070
6901.658836	0.097716	0.197386	13485.223633
6901.659693	0.097657	0.197386	13568.916016
6901.660742	0.097797	0.197386	13671.504883
6901.661737	0.097573	0.197386	13768.589844
6901.662624	0.097592	0.197386	13855.153320
6901.663589	0.097727	0.197386	13949.459961
6902.715874	1.042075	0.157747	480.396637
6902.716762	1.475739	0.157747	1790.852417
6902.717757	1.468718	0.157747	3252.227051
6902.718689	1.432874	0.157747	4587.665039
6902.719614	1.397395	0.157747	5880.255371
6902.720487	1.364425	0.157747	7071.398437
6902.721545	1.327899	0.157747	8476.315430
6902.722439	1.297441	0.157747	9636.228516
6902.723317	1.268683	0.157747	10750.131836
6902.724329	1.237526	0.157747	12002.507812
6902.725280	1.057987	0.157747	13008.653320
6902.726163	0.176122	0.157747	13164.168945
6902.727140	0.097540	0.157747	13259.465820
6902.728151	0.097515	0.157747	13358.052734
6902.729030	0.097507	0.157747	13443.761719
6902.729888	0.097632	0.157747	13527.530273
6902.730927	0.097676	0.157747	13629.015625
6902.731874	0.097482	0.157747	13721.331055
6902.732745	0.097570	0.157747	13806.314453
6902.733682	0.097610	0.157747	13897.774414
6902.734739	0.097537	0.157747	14000.871094
6903.714315	1.063293	0.200012	535.899902
6903.715227	1.478950	0.200012	1884.702515
6903.716092	1.469802	0.200012	3156.081543
6903.717192	1.428977	0.200012	4727.956055
6903.718190	1.390818	0.200012	6115.992187
6903.719084	1.358035	0.200012	7330.075195
6903.720086	1.323292	0.200012	8656.013672
6903.721160	1.287052	0.200012	10038.307617
6903.722063	1.257334	0.200012	11173.679687
6903.722932	1.229103	0.200012	12241.769531
6903.724039	0.678153	0.200012	12992.485352
6903.724990	0.102308	0.200012	13089.780273
6903.725852	0.097463	0.200012	13173.793945
6903.726915	0.097581	0.200012	13277.522461
6903.727948	0.097555	0.200012	13378.296875
6903.728822	0.097478	0.200012	13463.492187
6903.729734	0.097588	0.200012	13552.492187
6903.730821	0.097504	0.200012	13658.478516
6903.731766	0.097441	0.200012	13750.560547
6903.732671	0.097434	0.200012	13838.738281
6903.733548	0.097526	0.200012	13924.268555
6904.785341	0.990253	0.159278	417.886658
6904.786244	1.470952	0.159278	1746.156494
6904.787335	1.465800	0.159278	3345.343750
6904.788302	1.429288	0.159278	4727.465332
6904.789172	1.395286	0.159278	5941.363770
6904.790229	1.357017	0.159278	7375.730469
6904.791245	1.321520	0.159278	8718.394531
6904.792132	1.291337	0.159278	9863.810547
6904.793100	1.260234	0.159278	11083.717773
6904.794147	1.227268	0.159278	12368.667969
6904.795077	0.764832	0.159278	13079.960937
6904.795933	0.111976	0.159278	13175.812500
6904.797010	0.097471	0.159278	13280.788086
6904.798014	0.097504	0.159278	13378.681641
6904.798885	0.097478	0.159278	13463.584961
6904.799871	0.097474	0.159278	13559.694336
6904.800928	0.097500	0.159278	13662.751953
6904.801829	0.097467	0.159278	13750.569336
6904.802694	0.097559	0.159278	13834.957031
6904.803761	0.097577	0.159278	13939.071289
6904.804766	0.097456	0.159278	14037.014648
6905.784352	1.079667	0.201414	556.028381
6905.785235	1.478390	0.201414	1861.446777
6905.786102	1.471000	0.201414	3136.803711
6905.787123	1.432320	0.201414	4599.203125
6905.788101	1.394949	0.201414	5963.462891
6905.788979	1.362279	0.201414	7159.543945
6905.789864	1.330137	0.201414	8336.714844
6905.790976	1.293864	0.201414	9775.491211
6905.791868	1.264449	0.201414	10903.379883
6905.792731	1.236907	0.201414	11970.830078
6905.793806	0.931139	0.201414	12971.804687
6905.794781	0.124160	0.201414	13092.861328
6905.795639	0.097500	0.201414	13176.516602
6905.796739	0.097599	0.201414	13283.875000
6905.797770	0.097485	0.201414	13384.382812
6905.798646	0.097584	0.201414	13469.866211
6905.799583	0.097577	0.201414	13561.295898
6905.800637	0.097544	0.201414	13664.107422
6905.801568	0.097544	0.201414	13754.920898
6905.802433	0.097427	0.201414	13839.195312
6905.803472	0.097628	0.201414	13940.630859
6906.850838	1.067347	0.161353	543.279846
6906.851734	1.478716	0.161353	1868.209229
6906.852596	1.469286	0.161353	3134.733887
6906.853719	1.428600	0.161353	4739.051758
6906.854681	1.391894	0.161353	6078.054199
6906.855552	1.359697	0.161353	7262.350586
6906.856593	1.322769	0.161353	8639.352539
6906.857652	1.287459	0.161353	10002.771484
6906.858550	1.258026	0.161353	11132.478516
6906.859475	1.229235	0.161353	12269.520508
6906.860548	0.679519	0.161353	12998.644531
6906.861483	0.102949	0.161353	13094.902344
6906.862353	0.097423	0.161353	13179.660156
6906.863406	0.097628	0.161353	13282.462891
6906.864418	0.097588	0.161353	13381.221680
6906.865308	0.097617	0.161353	13468.100586
6906.866266	0.097540	0.161353	13561.543945
6906.867346	0.097581	0.161353	13666.930664
6906.868267	0.097566	0.161353	13756.789062
6906.869126	0.097460	0.161353	13840.506836
6906.870211	0.097570	0.161353	13946.370117
6907.858362	0.991956	0.198232	416.621338
6907.859266	1.470883	0.198232	1746.299194
6907.860365	1.465320	0.198232	3356.685791
6907.861324	1.428809	0.198232	4726.913086
6907.862200	1.395377	0.198232	5949.263672
6907.863241	1.356643	0.198232	7361.529297
6907.864277	1.320784	0.198232	8729.861328
6907.865178	1.289864	0.198232	9892.029297
6907.866144	1.259106	0.198232	11108.326172
6907.867198	1.226038	0.198232	12400.570312
6907.868136	0.719755	0.198232	13075.700195
6907.869001	0.108014	0.198232	13169.131836
6907.870089	0.097515	0.198232	13275.227539
6907.871093	0.097504	0.198232	13373.121094
6907.871988	0.097562	0.198232	13460.439453
6907.872961	0.097657	0.198232	13555.459961
6907.874017	0.097654	0.198232	13658.582031
6907.874919	0.097500	0.198232	13746.527344
6907.875780	0.097606	0.198232	13830.566406
6907.876881	0.097668	0.198232	13938.099609
6907.877865	0.097463	0.198232	14034.003906
6908.917268	1.067867	0.163322	544.612366
6908.918170	1.478763	0.163322	1878.456787
6908.919103	1.468565	0.163322	3248.627441
6908.919968	1.434250	0.163322	4489.253906
6908.921019	1.395125	0.163322	5955.529785
6908.921912	1.362206	0.163322	7171.979492
6908.922791	1.330957	0.163322	8341.890625
6908.923822	1.296760	0.163322	9678.850586
6908.924746	1.265658	0.163322	10848.318359
6908.925681	1.236705	0.163322	12004.637695
6908.926550	1.064572	0.163322	12929.750000
6908.927603	0.153025	0.163322	13090.884766
6908.928476	0.097397	0.163322	13175.913086
6908.929347	0.097566	0.163322	13260.892578
6908.930313	0.097548	0.163322	13355.124023
6908.931261	0.097606	0.163322	13447.654297
6908.932178	0.097526	0.163322	13537.084961
6908.933051	0.097515	0.163322	13622.214844
6908.934081	0.097562	0.163322	13722.704102
6908.934973	0.097529	0.163322	13809.700195
6908.935835	0.097548	0.163322	13893.786133
6909.930949	1.014756	0.197390	441.418793
6909.931829	1.472791	0.197390	1737.474609
6909.932832	1.469297	0.197390	3211.179199
6909.933911	1.429047	0.197390	4753.120605
6909.934801	1.394169	0.197390	5993.930664
6909.935691	1.360301	0.197390	7204.599121
6909.936801	1.322520	0.197390	8672.595703
6909.937761	1.289949	0.197390	9910.946289
6909.938686	1.260000	0.197390	11076.446289
6909.939550	1.232783	0.197390	12141.571289
6909.940601	0.850873	0.197390	13035.838867
6909.941479	0.120784	0.197390	13141.886719
6909.942353	0.097397	0.197390	13227.011719
6909.943234	0.097507	0.197390	13312.916016
6909.944273	0.097445	0.197390	13414.161133
6909.945174	0.097412	0.197390	13501.929687
6909.946051	0.097507	0.197390	13587.443359
6909.947035	0.097485	0.197390	13683.369141
6909.947972	0.097482	0.197390	13774.709961
6909.948894	0.097372	0.197390	13864.486328
6909.949759	0.097540	0.197390	13948.858398
6910.984143	1.023633	0.167012	452.445740
6910.985019	1.473472	0.167012	1743.206787
6910.986011	1.469355	0.167012	3200.807373
6910.987074	1.429860	0.167012	4720.748047
6910.987985	1.394077	0.167012	5990.751953
6910.988853	1.360847	0.167012	7171.967285
6910.989967	1.322853	0.167012	8645.625000
6910.990946	1.289941	0.167012	9908.477539
6910.991818	1.261359	0.167012	11008.381836
6910.992877	1.229004	0.167012	12309.896484
6910.993926	0.684661	0.167012	13028.105469
6910.994810	0.105231	0.167012	13121.129883
6910.995733	0.097504	0.167012	13211.125977
6910.996782	0.097573	0.167012	13313.480469
6910.997713	0.097482	0.167012	13404.236328
6910.998576	0.097430	0.167012	13488.318359
6910.999630	0.097646	0.167012	13591.237305
6911.000661	0.097478	0.167012	13691.737305
6911.001541	0.097456	0.167012	13777.499023
6911.002508	0.097573	0.167012	13871.852539
6911.003574	0.097566	0.167012	13975.857422
6912.000525	1.073745	0.197108	527.208862
6912.001406	1.476672	0.197108	1828.157104
6912.002267	1.471556	0.197108	3095.167236
6912.003332	1.431969	0.197108	4620.213867
6912.004287	1.395447	0.197108	5952.865234
6912.005148	1.362821	0.197108	7126.253906
6912.006189	1.326193	0.197108	8506.820312
6912.007241	1.291084	0.197108	9865.041016
6912.008121	1.262457	0.197108	10976.003906
6912.009091	1.232340	0.197108	12171.374023
6912.010166	0.772980	0.197108	13002.327148
6912.011082	0.109135	0.197108	13102.293945
6912.011950	0.097500	0.197108	13186.923828
6912.013031	0.097621	0.197108	13292.452148
6912.014029	0.097500	0.197108	13389.756836
6912.014922	0.097540	0.197108	13476.860352
6912.015903	0.097606	0.197108	13572.612305
6912.016965	0.097606	0.197108	13676.270508
6912.017862	0.097537	0.197108	13763.760742
6912.018724	0.097478	0.197108	13847.787109
6912.019837	0.097581	0.197108	13956.394531
6913.052147	1.027961	0.164773	493.421448
6913.053223	1.481056	0.164773	2087.037598
6913.054170	1.462764	0.164773	3472.274902
6913.055044	1.428805	0.164773	4721.050293
6913.056080	1.389031	0.164773	6160.085937
6913.057113	1.351743	0.164773	7556.436523
6913.058012	1.320828	0.164773	8743.860352
6913.058983	1.288004	0.164773	9994.512695
6913.060041	1.253610	0.164773	11320.832031
6913.060973	1.224598	0.164773	12462.157227
6913.061843	0.724893	0.164773	13092.813477
6913.062931	0.101462	0.164773	13203.204102
6913.063928	0.097452	0.164773	13300.364258
6913.064815	0.097566	0.164773	13386.905273
6913.065803	0.097716	0.164773	13483.449219
6913.066845	0.097606	0.164773	13585.155273
6913.067738	0.097570	0.164773	13672.285156
6913.068595	0.097595	0.164773	13755.923828
6913.069685	0.097636	0.164773	13862.346680
6913.070677	0.097562	0.164773	13959.128906
6913.071553	0.097526	0.164773	14044.561523
6914.071489	0.997983	0.192048	425.140961
6914.072497	1.476702	0.192048	1913.656250
6914.073537	1.464287	0.192048	3436.514893
6914.074422	1.429724	0.192048	4701.820801
6914.075321	1.394396	0.192048	5955.382812
6914.076403	1.355739	0.192048	7422.291992
6914.077349	1.322725	0.192048	8673.589844
6914.078213	1.292805	0.192048	9790.573242
6914.079257	1.259498	0.192048	11105.489258
6914.080303	1.226993	0.192048	12388.923828
6914.081189	0.802811	0.192048	13100.214844
6914.082124	0.115049	0.192048	13207.785156
6914.083188	0.097526	0.192048	13311.552734
6914.084112	0.097463	0.192048	13401.609375
6914.084977	0.097555	0.192048	13485.994141
6914.086006	0.097679	0.192048	13586.505859
6914.087024	0.097581	0.192048	13685.842773
6914.087911	0.097500	0.192048	13772.325195
6914.088874	0.097544	0.192048	13866.259766
6914.089934	0.097555	0.192048	13969.667969
6914.090861	0.097522	0.192048	14060.071289
6915.122705	1.068988	0.160583	546.252930
6915.123704	1.481884	0.160583	2026.654541
6915.124599	1.466272	0.160583	3338.968018
6915.125596	1.428823	0.160583	4763.504883
6915.126649	1.388617	0.160583	6225.718750
6915.127558	1.355043	0.160583	7457.452637
6915.128431	1.322849	0.160583	8612.299805
6915.129525	1.287308	0.160583	10020.615234
6915.130499	1.256008	0.160583	11243.966797
6915.131364	1.228876	0.160583	12306.944336
6915.132451	0.652526	0.160583	13016.240234
6915.133481	0.100657	0.160583	13119.916992
6915.134362	0.097493	0.160583	13205.807617
6915.135295	0.097482	0.160583	13296.757812
6915.136359	0.097646	0.160583	13400.653320
6915.137298	0.097478	0.160583	13492.185547
6915.138157	0.097614	0.160583	13576.035156
6915.139182	0.097621	0.160583	13676.096680
6915.140210	0.097533	0.160583	13776.360352
6915.141095	0.097485	0.160583	13862.634766
6915.142042	0.097537	0.160583	13955.001953
6916.137915	0.991205	0.192492	418.288452
6916.138934	1.475152	0.192492	1921.468872
6916.139999	1.463361	0.192492	3479.947754
6916.140882	1.428768	0.192492	4741.550293
6916.141781	1.393312	0.192492	5994.137695
6916.142888	1.353680	0.192492	7492.662109
6916.143836	1.320011	0.192492	8744.032227
6916.144708	1.290498	0.192492	9869.346680
6916.145747	1.257246	0.192492	11175.625000
6916.146778	1.225133	0.192492	12438.737305
6916.147673	0.737933	0.192492	13099.187500
6916.148642	0.109069	0.192492	13204.875000
6916.149699	0.097544	0.192492	13307.978516
6916.150624	0.097471	0.192492	13398.138672
6916.151488	0.097452	0.192492	13482.337891
6916.152563	0.097573	0.192492	13587.229492
6916.153562	0.097427	0.192492	13684.558594
6916.154451	0.097427	0.192492	13771.170898
6916.155417	0.097665	0.192492	13865.514648
6916.156470	0.097676	0.192492	13968.367187
6916.157388	0.097540	0.192492	14057.909180
6917.196365	1.122638	0.160144	644.394226
6917.197292	1.481287	0.160144	2017.546875
6917.198174	1.467195	0.160144	3311.612793
6917.199173	1.429614	0.160144	4739.797363
6917.200179	1.390474	0.160144	6138.613770
6917.201064	1.358199	0.160144	7340.620117
6917.201924	1.326061	0.160144	8481.032227
6917.203047	1.290058	0.160144	9929.767578
6917.203945	1.260337	0.160144	11061.549805
6917.204825	1.233113	0.160144	12146.689453
6917.205834	0.863804	0.160144	13018.267578
6917.206837	0.110599	0.160144	13129.199219
6917.207721	0.097427	0.160144	13215.324219
6917.208580	0.097643	0.160144	13299.199219
6917.209686	0.097577	0.160144	13407.119141
6917.210600	0.097412	0.160144	13496.154297
6917.211461	0.097493	0.160144	13580.095703
6917.212556	0.097610	0.160144	13686.978516
6917.213567	0.097449	0.160144	13785.499023
6917.214458	0.097518	0.160144	13872.387695
6917.215450	0.097529	0.160144	13969.136719
6918.203845	1.006838	0.200480	437.974731
6918.204710	1.471545	0.200480	1710.861450
6918.205575	1.472985	0.200480	2984.993164
6918.206631	1.435038	0.200480	4500.393066
6918.207526	1.400273	0.200480	5753.637695
6918.208408	1.367530	0.200480	6959.799805
6918.209389	1.333330	0.200480	8267.796875
6918.210338	1.300367	0.200480	9501.845703
6918.211261	1.270023	0.200480	10674.077148
6918.212133	1.242290	0.200480	11757.354492
6918.213176	1.140795	0.200480	12947.203125
6918.214082	0.217896	0.200480	13144.616211
6918.214944	0.097445	0.200480	13228.614258
6918.216010	0.097606	0.200480	13332.662109
6918.216949	0.097529	0.200480	13424.242187
6918.217822	0.097544	0.200480	13509.398437
6918.218738	0.097566	0.200480	13598.768555
6918.219824	0.097588	0.200480	13704.749023
6918.220696	0.097533	0.200480	13789.797852
6918.221558	0.097445	0.200480	13873.795898
6918.222576	0.097625	0.200480	13973.177734
6919.269863	1.042328	0.159270	485.724792
6919.270740	1.475090	0.159270	1779.379150
6919.271714	1.469319	0.159270	3210.495605
6919.272775	1.429025	0.159270	4726.690430
6919.273698	1.393257	0.159270	6012.666504
6919.274569	1.360312	0.159270	7197.498535
6919.275653	1.323036	0.159270	8631.669922
6919.276651	1.289026	0.159270	9918.118164
6919.277552	1.260546	0.159270	11053.870117
6919.278530	1.230055	0.159270	12256.863281
6919.279593	0.719363	0.159270	13021.545898
6919.280495	0.105385	0.159270	13116.602539
6919.281353	0.097511	0.159270	13200.266602
6919.282455	0.097606	0.159270	13307.829102
6919.283419	0.097467	0.159270	13401.787109
6919.284277	0.097504	0.159270	13485.445312
6919.285357	0.097687	0.159270	13590.947266
6919.286382	0.097533	0.159270	13690.918945
6919.287262	0.097482	0.159270	13776.703125
6919.288178	0.097526	0.159270	13866.036133
6919.289230	0.097566	0.159270	13968.675781
6920.270278	1.008468	0.204113	438.683594
6920.271146	1.471578	0.204113	1716.013550
6920.272244	1.466213	0.204113	3325.915771
6920.273242	1.427864	0.204113	4750.923828
6920.274144	1.393279	0.204113	6007.661133
6920.275159	1.356658	0.204113	7384.668945
6920.276214	1.320264	0.204113	8777.546875
6920.277109	1.289048	0.204113	9931.244141
6920.277995	1.259323	0.204113	11047.003906
6920.279095	1.226228	0.204113	12395.854492
6920.280048	0.715045	0.204113	13077.292969
6920.280906	0.108245	0.204113	13170.166992
6920.281957	0.097566	0.204113	13272.708984
6920.282993	0.097522	0.204113	13373.742187
6920.283873	0.097548	0.204113	13459.583984
6920.284820	0.097518	0.204113	13551.933594
6920.285892	0.097731	0.204113	13656.701172
6920.286819	0.097515	0.204113	13747.097656
6920.287676	0.097474	0.204113	13830.632812
6920.288715	0.097548	0.204113	13931.984375
6920.289740	0.097467	0.204113	14031.887695
6921.339403	1.053878	0.156978	531.154602
6921.340292	1.478075	0.156978	1845.163086
6921.341159	1.469663	0.156978	3119.360840
6921.342274	1.429296	0.156978	4713.025391
6921.343232	1.392642	0.156978	6047.176270
6921.344097	1.360605	0.156978	7224.099609
6921.345164	1.323413	0.156978	8636.181641
6921.346195	1.288718	0.156978	9964.849609
6921.347086	1.259623	0.156978	11087.173828
6921.348033	1.230194	0.156978	12252.167969
6921.349102	0.724702	0.156978	13026.875000
6921.350028	0.105659	0.156978	13124.715820
6921.350953	0.097405	0.156978	13214.815430
6921.351816	0.097544	0.156978	13298.996094
6921.352844	0.097595	0.156978	13399.324219
6921.353741	0.097577	0.156978	13486.850586
6921.354611	0.097511	0.156978	13571.685547
6921.355535	0.097500	0.156978	13661.775391
6921.356532	0.097504	0.156978	13758.986328
6921.357441	0.097445	0.156978	13847.563477
6921.358332	0.097562	0.156978	13934.491211
6922.339793	1.008391	0.201064	442.683655
6922.340660	1.472340	0.201064	1719.202637
6922.341697	1.468451	0.201064	3241.986328
6922.342733	1.429406	0.201064	4722.850586
6922.343619	1.394711	0.201064	5958.564453
6922.344539	1.360389	0.201064	7210.123047
6922.345632	1.322487	0.201064	8655.600586
6922.346576	1.290622	0.201064	9873.948242
6922.347439	1.262051	0.201064	10963.097656
6922.348458	1.230172	0.201064	12216.642578
6922.349498	0.759305	0.201064	13006.320312
6922.350390	0.109541	0.201064	13104.031250
6922.351344	0.097489	0.201064	13197.036133
6922.352409	0.097522	0.201064	13300.897461
6922.353330	0.097460	0.201064	13390.658203
6922.354195	0.097386	0.201064	13474.897461
6922.355265	0.097617	0.201064	13579.347656
6922.356280	0.097621	0.201064	13678.432617
6922.357164	0.097504	0.201064	13764.625977
6922.358139	0.097581	0.201064	13859.766602
6922.359203	0.097581	0.201064	13963.592773
6923.408929	1.082714	0.155943	558.680237
6923.409866	1.479998	0.155943	1945.437988
6923.410730	1.468572	0.155943	3214.284180
6923.411801	1.428530	0.155943	4744.240234
6923.412819	1.389613	0.155943	6158.866211
6923.413697	1.357441	0.155943	7350.699707
6923.414675	1.323424	0.155943	8645.007812
6923.415721	1.287854	0.155943	9992.103516
6923.416634	1.258099	0.155943	11140.748047
6923.417508	1.229974	0.155943	12215.746094
6923.418595	0.717045	0.155943	12995.173828
6923.419590	0.102220	0.155943	13096.882812
6923.420484	0.097617	0.155943	13184.152344
6923.421467	0.097738	0.155943	13280.228516
6923.422536	0.097592	0.155943	13384.553711
6923.423431	0.097518	0.155943	13471.833008
6923.424299	0.097577	0.155943	13556.529297
6923.425404	0.097614	0.155943	13664.392578
6923.426357	0.097456	0.155943	13757.268555
6923.427220	0.097493	0.155943	13841.404297
6923.428279	0.097599	0.155943	13944.761719
6924.409336	1.053347	0.197628	497.179840
6924.410223	1.476028	0.197628	1806.416504
6924.411100	1.471879	0.197628	3097.253906
6924.412065	1.435961	0.197628	4482.956055
6924.413017	1.398603	0.197628	5814.426758
6924.413953	1.364857	0.197628	7091.933105
6924.414822	1.333187	0.197628	8250.472656
6924.415869	1.298075	0.197628	9609.556641
6924.416768	1.268243	0.197628	10749.707031
6924.417632	1.240961	0.197628	11821.897461
6924.418689	1.058595	0.197628	12940.832031
6924.419650	0.166399	0.197628	13100.741211
6924.420522	0.097386	0.197628	13185.662109
6924.421429	0.097595	0.197628	13274.180664
6924.422523	0.097581	0.197628	13380.933594
6924.423389	0.097533	0.197628	13465.397461
6924.424257	0.097504	0.197628	13550.030273
6924.425287	0.097654	0.197628	13650.613281
6924.426259	0.097507	0.197628	13745.390625
6924.427139	0.097679	0.197628	13831.348633
6924.428020	0.097690	0.197628	13917.414062
6925.478937	1.070775	0.159753	549.307678
6925.479829	1.478397	0.159753	1868.038086
6925.480694	1.469334	0.159753	3139.011719
6925.481812	1.428571	0.159753	4736.153320
6925.482786	1.391232	0.159753	6091.212891
6925.483657	1.358987	0.159753	7274.890625
6925.484663	1.324545	0.159753	8607.382812
6925.485714	1.289246	0.159753	9962.379883
6925.486585	1.259868	0.159753	11059.724609
6925.487483	1.230919	0.159753	12165.089844
6925.488593	0.726848	0.159753	12971.891602
6925.489553	0.104253	0.159753	13071.974609
6925.490420	0.097354	0.159753	13156.379883
6925.491445	0.097632	0.159753	13256.452148
6925.492491	0.097482	0.159753	13358.417969
6925.493378	0.097478	0.159753	13444.880859
6925.494324	0.097610	0.159753	13537.219727
6925.495370	0.097625	0.159753	13639.334961
6925.496312	0.097515	0.159753	13731.193359
6925.497174	0.097518	0.159753	13815.253906
6925.498234	0.097544	0.159753	13918.650391
6926.477877	1.110516	0.202973	608.562927
6926.478935	1.482290	0.202973	2176.825684
6926.479827	1.462676	0.202973	3481.532471
6926.480727	1.427230	0.202973	4766.039551
6926.481821	1.386332	0.202973	6282.686523
6926.482788	1.351556	0.202973	7589.641602
6926.483657	1.320227	0.202973	8736.918945
6926.484690	1.286049	0.202973	10065.407227
6926.485717	1.253126	0.202973	11352.368164
6926.486600	1.225726	0.202973	12434.684570
6926.487543	0.701327	0.202973	13096.036133
6926.488613	0.101327	0.202973	13204.456055
6926.489535	0.097555	0.202973	13294.401367
6926.490393	0.097603	0.202973	13378.144531
6926.491440	0.097683	0.202973	13480.418945
6926.492463	0.097544	0.202973	13580.206055
6926.493334	0.097526	0.202973	13665.150391
6926.494296	0.097636	0.202973	13759.076172
6926.495334	0.097654	0.202973	13860.440430
6926.496259	0.097511	0.202973	13950.637695
6926.497127	0.097584	0.202973	14035.340820
6927.548929	1.058837	0.161151	515.653442
6927.549812	1.476749	0.161151	1819.623047
6927.550775	1.468949	0.161151	3234.220947
6927.551825	1.428702	0.161151	4734.358398
6927.552755	1.393004	0.161151	6029.852051
6927.553628	1.360767	0.161151	7217.801270
6927.554695	1.323534	0.161151	8630.011719
6927.555709	1.289011	0.161151	9937.069336
6927.556596	1.259952	0.161151	11054.646484
6927.557502	1.231626	0.161151	12170.500000
6927.558386	0.957473	0.161151	13016.906250
6927.559364	0.126251	0.161151	13140.379883
6927.560287	0.097430	0.161151	13230.308594
6927.561168	0.097570	0.161151	13316.267578
6927.562195	0.097643	0.161151	13416.546875
6927.563090	0.097423	0.161151	13503.740234
6927.563960	0.097493	0.161151	13588.558594
6927.564836	0.097566	0.161151	13674.026367
6927.565884	0.097522	0.161151	13776.229492
6927.566777	0.097449	0.161151	13863.250977
6927.567644	0.097599	0.161151	13947.869141
6928.547864	1.074877	0.202260	542.812744
6928.548881	1.481580	0.202260	2049.579102
6928.549778	1.465415	0.202260	3364.056396
6928.550739	1.428805	0.202260	4737.137695
6928.551811	1.387566	0.202260	6224.608398
6928.552747	1.353468	0.202260	7491.454590
6928.553614	1.321941	0.202260	8637.577148
6928.554702	1.286353	0.202260	10037.128906
6928.555698	1.254199	0.202260	11286.311523
6928.556599	1.226279	0.202260	12391.189453
6928.557616	0.643315	0.202260	13045.441406
6928.558667	0.100210	0.202260	13150.761719
6928.559563	0.097394	0.202260	13238.026367
6928.560422	0.097518	0.202260	13321.794922
6928.561535	0.097551	0.202260	13430.369141
6928.562502	0.097551	0.202260	13524.701172
6928.563366	0.097463	0.202260	13608.909180
6928.564426	0.097654	0.202260	13712.421875
6928.565459	0.097485	0.202260	13813.124023
6928.566334	0.097559	0.202260	13898.488281
6928.567249	0.097544	0.202260	13987.741211
6929.615378	1.069461	0.163250	536.869202
6929.616261	1.477189	0.163250	1841.226807
6929.617197	1.468557	0.163250	3215.796387
6929.618264	1.427930	0.163250	4739.397461
6929.619209	1.392001	0.163250	6054.837891
6929.620075	1.359675	0.163250	7232.316406
6929.621114	1.323395	0.163250	8607.323242
6929.622147	1.288630	0.163250	9938.478516
6929.623044	1.259762	0.163250	11068.485352
6929.624015	1.229421	0.163250	12262.253906
6929.625095	0.680786	0.163250	12997.502930
6929.626023	0.103154	0.163250	13093.230469
6929.626886	0.097489	0.163250	13177.363281
6929.627985	0.097562	0.163250	13284.583984
6929.628980	0.097412	0.163250	13381.508789
6929.629867	0.097496	0.163250	13467.988281
6929.630868	0.097614	0.163250	13565.699219
6929.631921	0.097555	0.163250	13668.424805
6929.632810	0.097518	0.163250	13755.118164
6929.633671	0.097471	0.163250	13839.040039
6929.634784	0.097599	0.163250	13947.667969
6930.618841	1.036000	0.201015	462.055847
6930.619725	1.474369	0.201015	1765.397949
6930.620590	1.471512	0.201015	3038.256348
6930.621709	1.431412	0.201015	4640.006836
6930.622625	1.395571	0.201015	5918.350098
6930.623500	1.363638	0.201015	7111.533203
6930.624492	1.328771	0.201015	8429.673828
6930.625508	1.294017	0.201015	9744.395508
6930.626401	1.265057	0.201015	10874.091797
6930.627267	1.236669	0.201015	11945.046875
6930.628353	0.958484	0.201015	12985.959961
6930.629256	0.140079	0.201015	13112.451172
6930.630123	0.097401	0.201015	13196.897461
6930.631120	0.097548	0.201015	13294.152344
6930.632138	0.097467	0.201015	13393.374023
6930.633005	0.097427	0.201015	13477.842773
6930.633978	0.097646	0.201015	13572.852539
6930.635029	0.097489	0.201015	13675.313477
6930.635936	0.097408	0.201015	13763.663086
6930.636798	0.097500	0.201015	13847.708008
6930.637891	0.097562	0.201015	13954.343750
6931.683880	1.081373	0.162851	577.453308
6931.684939	1.481796	0.162851	2146.674805
6931.685862	1.462009	0.162851	3496.109375
6931.686733	1.427084	0.162851	4739.099609
6931.687846	1.385892	0.162851	6281.597656
6931.688816	1.350216	0.162851	7591.307617
6931.689701	1.319831	0.162851	8759.358398
6931.690713	1.286045	0.162851	10060.835937
6931.691766	1.252225	0.162851	11379.429687
6931.692662	1.224042	0.162851	12476.170898
6931.693553	0.686646	0.162851	13087.971680
6931.694640	0.100686	0.162851	13197.416992
6931.695584	0.097449	0.162851	13289.408203
6931.696445	0.097493	0.162851	13373.349609
6931.697493	0.097595	0.162851	13475.628906
6931.698530	0.097405	0.162851	13576.637695
6931.699410	0.097537	0.162851	13662.469727
6931.700355	0.097592	0.162851	13754.693359
6931.701431	0.097474	0.162851	13859.576172
6931.702361	0.097559	0.162851	13950.305664
6931.703221	0.097555	0.162851	14034.203125
6932.687902	1.075693	0.201962	548.603638
6932.688851	1.480038	0.201962	1953.159546
6932.689716	1.468330	0.201962	3223.265137
6932.690757	1.428893	0.201962	4710.742676
6932.691807	1.389250	0.201962	6169.455566
6932.692681	1.356592	0.201962	7355.116699
6932.693655	1.322600	0.201962	8643.329102
6932.694717	1.286843	0.201962	10009.957031
6932.695638	1.257037	0.201962	11167.688477
6932.696512	1.229326	0.201962	12242.119141
6932.697579	0.710566	0.201962	13000.293945
6932.698582	0.102078	0.201962	13102.677734
6932.699475	0.097511	0.201962	13189.754883
6932.700454	0.097555	0.201962	13285.260742
6932.701522	0.097643	0.201962	13389.542969
6932.702421	0.097529	0.201962	13477.221680
6932.703284	0.097636	0.201962	13561.481445
6932.704370	0.097676	0.201962	13667.557617
6932.705332	0.097577	0.201962	13761.426758
6932.706205	0.097562	0.201962	13846.598633
6932.707228	0.097614	0.201962	13946.457031
6933.754403	1.086724	0.162553	558.575928
6933.755359	1.480928	0.162553	1974.342773
6933.756221	1.468542	0.162553	3240.226318
6933.757278	1.428691	0.162553	4750.353027
6933.758315	1.388657	0.162553	6190.390625
6933.759199	1.356145	0.162553	7389.222656
6933.760147	1.322754	0.162553	8643.193359
6933.761220	1.287037	0.162553	10024.184570
6933.762157	1.256675	0.162553	11201.688477
6933.763021	1.229205	0.162553	12263.721680
6933.764106	0.692435	0.162553	13015.013672
6933.765115	0.101477	0.162553	13117.404297
6933.765989	0.097445	0.162553	13202.571289
6933.766859	0.097515	0.162553	13287.409180
6933.767836	0.097518	0.162553	13382.684570
6933.768778	0.097478	0.162553	13474.508789
6933.769689	0.097467	0.162553	13563.300781
6933.770568	0.097518	0.162553	13649.019531
6933.771605	0.097507	0.162553	13750.134766
6933.772493	0.097423	0.162553	13836.646484
6933.773369	0.097661	0.162553	13922.197266
6934.758862	1.013408	0.201378	446.913055
6934.759725	1.471736	0.201378	1717.021118
6934.760828	1.466056	0.201378	3334.080566
6934.761833	1.427593	0.201378	4768.811523
6934.762713	1.393671	0.201378	5995.241699
6934.763721	1.357255	0.201378	7363.354492
6934.764785	1.320553	0.201378	8768.422852
6934.765659	1.289319	0.201378	9895.287109
6934.766558	1.259583	0.201378	11027.652344
6934.767656	1.226477	0.201378	12374.324219
6934.768621	0.714551	0.201378	13063.865234
6934.769488	0.107747	0.201378	13157.281250
6934.770522	0.097614	0.201378	13258.213867
6934.771548	0.097555	0.201378	13358.305664
6934.772434	0.097463	0.201378	13444.658203
6934.773373	0.097625	0.201378	13536.327148
6934.774437	0.097603	0.201378	13640.175781
6934.775379	0.097419	0.201378	13731.945312
6934.776238	0.097566	0.201378	13815.754883
6934.777313	0.097657	0.201378	13920.736328
6934.778328	0.097643	0.201378	14019.843750
6935.824881	1.050289	0.161888	502.038269
6935.825752	1.475233	0.161888	1786.966309
6935.826717	1.469407	0.161888	3204.943848
6935.827785	1.428695	0.161888	4730.790039
6935.828706	1.393436	0.161888	6014.145020
6935.829579	1.360228	0.161888	7201.624023
6935.830677	1.322516	0.161888	8653.746094
6935.831680	1.288162	0.161888	9945.772461
6935.832580	1.259246	0.161888	11079.093750
6935.833594	1.227986	0.161888	12324.271484
6935.834663	0.651566	0.161888	13020.795898
6935.835552	0.103000	0.161888	13112.363281
6935.836435	0.097504	0.161888	13198.458984
6935.837536	0.097709	0.161888	13306.036133
6935.838490	0.097471	0.161888	13399.023437
6935.839360	0.097500	0.161888	13483.848633
6935.840396	0.097636	0.161888	13584.999023
6935.841423	0.097581	0.161888	13685.213867
6935.842308	0.097500	0.161888	13771.500977
6935.843241	0.097482	0.161888	13862.451172
6935.844290	0.097555	0.161888	13964.786133
6936.826297	0.990776	0.204814	418.107635
6936.827288	1.475416	0.204814	1880.245117
6936.828292	1.465338	0.204814	3351.444580
6936.829189	1.431302	0.204814	4635.322754
6936.830054	1.396307	0.204814	5843.128906
6936.831178	1.357321	0.204814	7368.757324
6936.832082	1.324680	0.204814	8566.268555
6936.832952	1.295251	0.204814	9693.136719
6936.834037	1.260509	0.204814	11060.789062
6936.835020	1.229627	0.204814	12269.511719
6936.835894	0.923419	0.204814	13076.580078
6936.836934	0.117429	0.204814	13198.706055
6936.837973	0.097467	0.204814	13299.974609
6936.838849	0.097511	0.204814	13385.394531
6936.839769	0.097606	0.204814	13475.192383
6936.840822	0.097595	0.204814	13577.959961
6936.841767	0.097518	0.204814	13670.115234
6936.842628	0.097504	0.204814	13754.065430
6936.843694	0.097745	0.204814	13858.261719
6936.844723	0.097529	0.204814	13958.619141
6936.845596	0.097595	0.204814	14043.819336
6937.894404	1.052358	0.164382	523.022095
6937.895296	1.477570	0.164382	1841.014160
6937.896161	1.469634	0.164382	3112.247559
6937.897285	1.428812	0.164382	4718.232422
6937.898269	1.391444	0.164382	6087.413574
6937.899138	1.359569	0.164382	7268.878906
6937.900224	1.321198	0.164382	8703.699219
6937.901243	1.286982	0.164382	10015.134766
6937.902128	1.257990	0.164382	11128.455078
6937.903081	1.229070	0.164382	12299.758789
6937.904141	0.672268	0.164382	13012.363281
6937.905071	0.103081	0.164382	13108.228516
6937.905931	0.097299	0.164382	13191.905273
6937.906984	0.097588	0.164382	13294.665039
6937.908002	0.097434	0.164382	13393.852539
6937.908875	0.097445	0.164382	13478.921875
6937.909834	0.097518	0.164382	13572.442383
6937.910917	0.097544	0.164382	13678.082031
6937.911818	0.097375	0.164382	13765.817383
6937.912683	0.097562	0.164382	13850.208984
6937.913747	0.097570	0.164382	13954.023437
6938.894797	1.005652	0.201555	437.458557
6938.895662	1.471637	0.201555	1710.424561
6938.896689	1.468843	0.201555	3218.926025
6938.897744	1.429274	0.201555	4726.809570
6938.898625	1.394740	0.201555	5955.575195
6938.899539	1.360166	0.201555	7198.766602
6938.900622	1.323234	0.201555	8631.828125
6938.901566	1.290908	0.201555	9850.445312
6938.902426	1.262596	0.201555	10936.278320
6938.903472	1.229927	0.201555	12222.781250
6938.904515	0.752571	0.201555	13007.712891
6938.905402	0.109200	0.201555	13104.573242
6938.906360	0.097474	0.201555	13197.954102
6938.907413	0.097496	0.201555	13300.618164
6938.908336	0.097526	0.201555	13390.634766
6938.909201	0.097460	0.201555	13474.937500
6938.910279	0.097687	0.201555	13580.244141
6938.911279	0.097511	0.201555	13677.754883
6938.912170	0.097515	0.201555	13764.640625
6938.913136	0.097712	0.201555	13859.031250
6938.914188	0.097496	0.201555	13961.597656
6939.963932	1.070962	0.164612	544.048645
6939.964852	1.479089	0.164612	1904.810791
6939.965713	1.469334	0.164612	3169.906982
6939.966780	1.429816	0.164612	4695.520508
6939.967808	1.390192	0.164612	6124.637695
6939.968689	1.357727	0.164612	7320.794922
6939.969569	1.326050	0.164612	8487.718750
6939.970545	1.294006	0.164612	9750.668945
6939.971503	1.262113	0.164612	10959.773437
6939.972426	1.233435	0.164612	12098.234375
6939.973310	1.029364	0.164612	13008.192383
6939.974351	0.129397	0.164612	13142.894531
6939.975262	0.097288	0.164612	13231.523437
6939.976144	0.097482	0.164612	13317.501953
6939.977082	0.097489	0.164612	13408.946289
6939.978063	0.097500	0.164612	13504.593750
6939.978993	0.097445	0.164612	13595.217773
6939.979861	0.097559	0.164612	13679.898437
6939.980925	0.097581	0.164612	13783.724609
6939.981795	0.097474	0.164612	13868.527344
6939.982664	0.097438	0.164612	13953.201172
6940.963860	1.071797	0.202808	538.042053
6940.964784	1.479020	0.202808	1904.656250
6940.965650	1.469066	0.202808	3176.867676
6940.966727	1.429193	0.202808	4716.108398
6940.967733	1.390466	0.202808	6114.917480
6940.968617	1.358199	0.202808	7315.565918
6940.969613	1.323680	0.202808	8633.951172
6940.970655	1.287869	0.202808	9975.910156
6940.971566	1.258488	0.202808	11122.392578
6940.972434	1.230395	0.202808	12190.375977
6940.973526	0.743273	0.202808	13002.029297
6940.974515	0.103469	0.202808	13104.360352
6940.975386	0.097386	0.202808	13189.183594
6940.976370	0.097657	0.202808	13285.278320
6940.977418	0.097493	0.202808	13387.450195
6940.978322	0.097467	0.202808	13475.560547
6940.979180	0.097551	0.202808	13559.259766
6940.980286	0.097595	0.202808	13667.200195
6940.981249	0.097423	0.202808	13761.018555
6940.982154	0.097489	0.202808	13849.246094
6940.983026	0.097474	0.202808	13934.244141
6942.034377	1.015858	0.162626	443.929962
6942.035259	1.473182	0.162626	1743.276733
6942.036252	1.469143	0.162626	3202.135742
6942.037319	1.429244	0.162626	4727.139648
6942.038227	1.393733	0.162626	5992.649414
6942.039100	1.360096	0.162626	7180.013672
6942.040228	1.322205	0.162626	8671.460937
6942.041184	1.289971	0.162626	9904.672852
6942.042054	1.261490	0.162626	11002.169922
6942.043109	1.228876	0.162626	12298.633789
6942.044139	0.714701	0.162626	13034.775391
6942.045023	0.107065	0.162626	13129.420898
6942.045954	0.097463	0.162626	13220.159180
6942.047012	0.097540	0.162626	13323.356445
6942.047945	0.097460	0.162626	13414.286133
6942.048803	0.097449	0.162626	13497.897461
6942.049859	0.097628	0.162626	13600.993164
6942.050873	0.097500	0.162626	13699.858398
6942.051752	0.097460	0.162626	13785.525391
6942.052709	0.097581	0.162626	13878.910156
6942.053771	0.097544	0.162626	13982.501953
6943.033870	1.062660	0.205004	535.580566
6943.034761	1.477687	0.205004	1852.199463
6943.035625	1.469410	0.205004	3121.770020
6943.036751	1.428625	0.205004	4730.402344
6943.037719	1.391770	0.205004	6077.635742
6943.038590	1.359262	0.205004	7261.552734
6943.039651	1.322410	0.205004	8664.628906
6943.040686	1.287777	0.205004	9997.478516
6943.041578	1.258334	0.205004	11119.912109
6943.042517	1.229257	0.205004	12274.183594
6943.043583	0.689637	0.205004	13009.336914
6943.044518	0.103671	0.205004	13106.268555
6943.045383	0.097507	0.205004	13190.612305
6943.046436	0.097614	0.205004	13293.399414
6943.047458	0.097621	0.205004	13393.167969
6943.048326	0.097537	0.205004	13477.830078
6943.049276	0.097606	0.205004	13570.555664
6943.050349	0.097522	0.205004	13675.196289
6943.051257	0.097533	0.205004	13763.755859
6943.052123	0.097537	0.205004	13848.222656
6943.053168	0.097636	0.205004	13950.251953
6944.102937	1.077235	0.159056	552.621582
6944.103970	1.481646	0.159056	2083.161621
6944.104870	1.464441	0.159056	3401.158447
6944.105824	1.428340	0.159056	4763.794922
6944.106874	1.387932	0.159056	6221.123535
6944.107805	1.353611	0.159056	7481.334961
6944.108666	1.322871	0.159056	8620.327148
6944.109738	1.287550	0.159056	10000.581055
6944.110752	1.254653	0.159056	11272.799805
6944.111635	1.227319	0.159056	12356.522461
6944.112626	0.713749	0.159056	13063.847656
6944.113663	0.102290	0.159056	13169.922852
6944.114568	0.097504	0.159056	13258.164062
6944.115425	0.097456	0.159056	13341.683594
6944.116491	0.097544	0.159056	13445.665039
6944.117490	0.097496	0.159056	13543.063477
6944.118381	0.097515	0.159056	13629.949219
6944.119372	0.097537	0.159056	13726.608398
6944.120420	0.097551	0.159056	13828.841797
6944.121324	0.097507	0.159056	13916.988281
6944.122240	0.097405	0.159056	14006.210937
6945.104333	1.006542	0.203098	442.878418
6945.105200	1.471769	0.203098	1718.901978
6945.106268	1.466924	0.203098	3285.576660
6945.107288	1.428354	0.203098	4742.498047
6945.108169	1.394154	0.203098	5970.748047
6945.109152	1.358540	0.203098	7306.192871
6945.110211	1.321351	0.203098	8705.503906
6945.111110	1.290304	0.203098	9865.487305
6945.111984	1.261446	0.203098	10967.991211
6945.113046	1.228594	0.203098	12272.757812
6945.114062	0.734055	0.203098	13018.557617
6945.114959	0.107593	0.203098	13115.068359
6945.115938	0.097496	0.203098	13210.517578
6945.116998	0.097515	0.203098	13313.882812
6945.117900	0.097471	0.203098	13401.801758
6945.118763	0.097482	0.203098	13485.928711
6945.119870	0.097588	0.203098	13593.958984
6945.120838	0.097449	0.203098	13688.289062
6945.121705	0.097463	0.203098	13772.790039
6945.122815	0.097654	0.203098	13881.185547
6945.123851	0.097540	0.203098	13982.237305
6946.171337	1.000605	0.158698	434.262756
6946.172201	1.471326	0.158698	1705.488281
6946.173265	1.467492	0.158698	3266.899414
6946.174200	1.431665	0.158698	4605.505859
6946.175084	1.397805	0.158698	5841.165527
6946.176040	1.362902	0.158698	7144.099609
6946.177085	1.326101	0.158698	8529.875000
6946.177980	1.295028	0.158698	9688.924805
6946.178848	1.266562	0.158698	10788.300781
6946.179915	1.233307	0.158698	12104.239258
6946.180873	0.968972	0.158698	13032.514648
6946.181736	0.145536	0.158698	13158.112305
6946.182790	0.097485	0.158698	13260.862305
6946.183797	0.097493	0.158698	13359.037109
6946.184688	0.097555	0.158698	13445.958984
6946.185641	0.097522	0.158698	13538.897461
6946.186668	0.097570	0.158698	13639.101562
6946.187603	0.097507	0.158698	13730.270508
6946.188464	0.097452	0.158698	13814.176758
6946.189519	0.097544	0.158698	13917.085937
6946.190527	0.097397	0.158698	14015.262695
6947.175980	1.089174	0.197314	569.637756
6947.177020	1.481536	0.197314	2110.434814
6947.177904	1.463745	0.197314	3404.385498
6947.178785	1.430618	0.197314	4664.759766
6947.179744	1.393770	0.197314	6001.384766
6947.180710	1.357998	0.197314	7313.210937
6947.181630	1.326416	0.197314	8533.513672
6947.182514	1.294999	0.197314	9678.292969
6947.183562	1.261930	0.197314	11000.795898
6947.184456	1.233724	0.197314	12103.745117
6947.185334	1.052428	0.197314	13027.776367
6947.186254	0.172852	0.197314	13186.799805
6947.187268	0.097335	0.197314	13285.498047
6947.188190	0.097485	0.197314	13375.379883
6947.189054	0.097427	0.197314	13459.556641
6947.190065	0.097518	0.197314	13558.147461
6947.190954	0.097408	0.197314	13644.743164
6947.191828	0.097500	0.197314	13729.958008
6947.192806	0.097588	0.197314	13825.399414
6947.193814	0.097449	0.197314	13923.627930
6947.194703	0.097456	0.197314	14010.266602
6948.236807	1.056526	0.161296	529.319519
6948.237693	1.477145	0.161296	1838.069824
6948.238631	1.468663	0.161296	3215.676025
6948.239708	1.427747	0.161296	4753.358887
6948.240661	1.391462	0.161296	6079.422852
6948.241532	1.359097	0.161296	7263.196289
6948.242594	1.322120	0.161296	8667.288086
6948.243609	1.287583	0.161296	9974.184570
6948.244503	1.258828	0.161296	11099.577148
6948.245463	1.229235	0.161296	12279.642578
6948.246517	0.697119	0.161296	13014.406250
6948.247438	0.104385	0.161296	13110.544922
6948.248295	0.097427	0.161296	13194.040039
6948.249366	0.097588	0.161296	13298.556641
6948.250376	0.097427	0.161296	13396.958008
6948.251253	0.097332	0.161296	13482.317383
6948.252252	0.097668	0.161296	13579.887695
6948.253295	0.097540	0.161296	13681.622070
6948.254188	0.097518	0.161296	13768.706055
6948.255058	0.097603	0.161296	13853.620117
6948.256136	0.097485	0.161296	13958.708984
6949.247931	0.990791	0.194002	421.086182
6949.248798	1.470509	0.194002	1696.017578
6949.249811	1.469392	0.194002	3184.511719
6949.250731	1.434360	0.194002	4504.123047
6949.251617	1.400654	0.194002	5745.102539
6949.252609	1.363912	0.194002	7098.103516
6949.253623	1.328082	0.194002	8444.779297
6949.254514	1.297313	0.194002	9600.685547
6949.255380	1.267976	0.194002	10698.752930
6949.256476	1.234988	0.194002	12052.299805
6949.257391	1.043914	0.194002	13007.480469
6949.258271	0.170328	0.194002	13157.369141
6949.259258	0.097533	0.194002	13253.633789
6949.260250	0.097496	0.194002	13350.350586
6949.261138	0.097562	0.194002	13436.986328
6949.261993	0.097518	0.194002	13520.364258
6949.263073	0.097639	0.194002	13625.814453
6949.263989	0.097548	0.194002	13715.167969
6949.264854	0.097588	0.194002	13799.581055
6949.265902	0.097636	0.194002	13901.903320
6949.266905	0.097526	0.194002	13999.721680
6950.303681	0.993728	0.167617	427.303040
6950.304549	1.471190	0.167617	1704.296143
6950.305588	1.468257	0.167617	3229.814941
6950.306633	1.428952	0.167617	4723.069336
6950.307529	1.394172	0.167617	5972.247559
6950.308474	1.359943	0.167617	7257.393555
6950.309525	1.322534	0.167617	8647.376953
6950.310457	1.291007	0.167617	9850.595703
6950.311321	1.262604	0.167617	10941.485352
6950.312375	1.230289	0.167617	12238.209961
6950.313403	0.771969	0.167617	13031.793945
6950.314279	0.111870	0.167617	13129.791992
6950.315252	0.097511	0.167617	13224.669922
6950.316294	0.097584	0.167617	13326.352539
6950.317209	0.097559	0.167617	13415.619141
6950.318066	0.097610	0.167617	13499.270508
6950.319118	0.097650	0.167617	13601.998047
6950.320130	0.097434	0.167617	13700.601562
6950.321017	0.097460	0.167617	13787.047852
6950.321996	0.097712	0.167617	13882.708008
6950.323066	0.097496	0.167617	13987.029297
6951.319613	1.115977	0.197221	617.135071
6951.320542	1.480990	0.197221	1992.974854
6951.321425	1.467433	0.197221	3288.718018
6951.322420	1.429757	0.197221	4711.326172
6951.323433	1.390704	0.197221	6120.109863
6951.324321	1.358181	0.197221	7326.174805
6951.325187	1.326277	0.197221	8474.730469
6951.326306	1.290022	0.197221	9918.264648
6951.327221	1.259868	0.197221	11071.043945
6951.328099	1.232681	0.197221	12153.337891
6951.329116	0.863328	0.197221	13031.341797
6951.330109	0.111804	0.197221	13142.363281
6951.330989	0.097438	0.197221	13228.108398
6951.331844	0.097544	0.197221	13311.508789
6951.332928	0.097606	0.197221	13417.313477
6951.333831	0.097544	0.197221	13505.395508
6951.334697	0.097625	0.197221	13589.938477
6951.335761	0.097679	0.197221	13693.869141
6951.336757	0.097526	0.197221	13791.004883
6951.337646	0.097544	0.197221	13877.721680
6951.338616	0.097566	0.197221	13972.360352
6952.371131	0.994530	0.169486	421.680725
6952.372186	1.477573	0.169486	1980.520508
6952.373195	1.462866	0.169486	3456.552490
6952.374077	1.429146	0.169486	4717.058594
6952.375059	1.392012	0.169486	6084.014160
6952.376107	1.353208	0.169486	7502.176270
6952.377033	1.320612	0.169486	8725.062500
6952.377900	1.290692	0.169486	9844.092773
6952.378978	1.256631	0.169486	11198.741211
6952.379985	1.225294	0.169486	12432.612305
6952.380866	0.759653	0.169486	13101.867187
6952.381849	0.109014	0.169486	13209.027344
6952.382911	0.097507	0.169486	13312.580078
6952.383801	0.097544	0.169486	13399.394531
6952.384666	0.097588	0.169486	13483.807617
6952.385780	0.097679	0.169486	13592.622070
6952.386763	0.097474	0.169486	13688.439453
6952.387627	0.097511	0.169486	13772.688477
6952.388681	0.097753	0.169486	13875.719727
6952.389734	0.097500	0.169486	13978.387695
6952.390625	0.097515	0.169486	14065.273437
6953.390527	0.994340	0.197209	423.588684
6953.391394	1.470721	0.197209	1698.704102
6953.392425	1.468396	0.197209	3212.620361
6953.393399	1.431746	0.197209	4607.140625
6953.394289	1.397256	0.197209	5850.698242
6953.395208	1.363026	0.197209	7103.319336
6953.396289	1.325966	0.197209	8536.688477
6953.397187	1.294849	0.197209	9699.462891
6953.398117	1.264468	0.197209	10875.417969
6953.399185	1.230970	0.197209	12190.094727
6953.400138	0.902963	0.197209	13050.618164
6953.400998	0.130430	0.197209	13162.788086
6953.402046	0.097573	0.197209	13265.044922
6953.403064	0.097500	0.197209	13364.299805
6953.403945	0.097493	0.197209	13450.190430
6953.404917	0.097646	0.197209	13545.102539
6953.405980	0.097606	0.197209	13648.858398
6953.406892	0.097471	0.197209	13737.751953
6953.407750	0.097559	0.197209	13821.457031
6953.408809	0.097500	0.197209	13924.709961
6953.409821	0.097562	0.197209	14023.443359
6954.441147	1.010680	0.167484	427.517578
6954.442245	1.479756	0.167484	2052.289551
6954.443208	1.463086	0.167484	3461.241211
6954.444079	1.429526	0.167484	4706.358398
6954.445114	1.390265	0.167484	6145.282715
6954.446171	1.352417	0.167484	7574.787598
6954.447048	1.320941	0.167484	8733.252930
6954.447942	1.289403	0.167484	9885.979492
6954.449052	1.254771	0.167484	11278.774414
6954.450001	1.225532	0.167484	12441.804687
6954.450871	0.775990	0.167484	13116.916016
6954.451917	0.104916	0.167484	13226.658203
6954.452940	0.097562	0.167484	13326.464844
6954.453813	0.097430	0.167484	13411.521484
6954.454742	0.097537	0.167484	13502.132812
6954.455815	0.097577	0.167484	13606.833008
6954.456760	0.097489	0.167484	13698.959961
6954.457630	0.097478	0.167484	13783.765625
6954.458688	0.097537	0.167484	13886.958984
6954.459706	0.097551	0.167484	13986.266602
6954.460597	0.097463	0.167484	14073.106445
6955.457978	0.996757	0.202937	420.631256
6955.459054	1.478551	0.202937	2011.552124
6955.459994	1.464785	0.202937	3388.450195
6955.460871	1.431075	0.202937	4643.503418
6955.461842	1.394601	0.202937	5997.661133
6955.462868	1.356343	0.202937	7389.268555
6955.463758	1.325292	0.202937	8568.778320
6955.464625	1.294838	0.202937	9691.402344
6955.465688	1.260989	0.202937	11031.833008
6955.466617	1.231604	0.202937	12175.993164
6955.467501	0.994124	0.202937	13054.798828
6955.468470	0.149854	0.202937	13200.006836
6955.469503	0.097438	0.202937	13300.660156
6955.470396	0.097482	0.202937	13387.710937
6955.471349	0.097650	0.202937	13480.771484
6955.472410	0.097540	0.202937	13584.261719
6955.473338	0.097500	0.202937	13674.742187
6955.474200	0.097614	0.202937	13758.884766
6955.475284	0.097672	0.202937	13864.761719
6955.476290	0.097496	0.202937	13962.842773
6955.477174	0.097460	0.202937	14048.997070
6956.511776	1.081761	0.166694	554.943665
6956.512819	1.481733	0.166694	2100.391602
6956.513696	1.464430	0.166694	3384.696533
6956.514669	1.427494	0.166694	4773.647949
6956.515744	1.386885	0.166694	6264.548828
6956.516658	1.353094	0.166694	7501.277344
6956.517534	1.321172	0.166694	8658.624023
6956.518617	1.285488	0.166694	10050.807617
6956.519610	1.253232	0.166694	11295.267578
6956.520513	1.225752	0.166694	12402.121094
6956.521518	0.641620	0.166694	13046.949219
6956.522571	0.100129	0.166694	13152.385742
6956.523460	0.097478	0.166694	13239.043945
6956.524323	0.097581	0.166694	13323.255859
6956.525435	0.097551	0.166694	13431.732422
6956.526396	0.097390	0.166694	13525.324219
6956.527261	0.097489	0.166694	13609.652344
6956.528309	0.097687	0.166694	13712.028320
6956.529347	0.097507	0.166694	13813.241211
6956.530241	0.097463	0.166694	13900.373047
6956.531166	0.097500	0.166694	13990.560547
6957.526472	1.011764	0.200641	441.129059
6957.527347	1.472183	0.200641	1729.288818
6957.528316	1.469744	0.200641	3153.470459
6957.529349	1.430951	0.200641	4631.642578
6957.530248	1.396421	0.200641	5887.024902
6957.531114	1.364114	0.200641	7068.347656
6957.532185	1.326786	0.200641	8489.334961
6957.533129	1.294944	0.200641	9711.761719
6957.533999	1.265504	0.200641	10812.750000
6957.535068	1.232864	0.200641	12130.681641
6957.536078	0.890834	0.200641	13030.423828
6957.536967	0.124479	0.200641	13141.084961
6957.537947	0.097529	0.200641	13236.664062
6957.538987	0.097500	0.200641	13338.064453
6957.539888	0.097449	0.200641	13425.866211
6957.540743	0.097485	0.200641	13509.215820
6957.541836	0.097577	0.200641	13615.867187
6957.542831	0.097460	0.200641	13712.839844
6957.543709	0.097449	0.200641	13798.399414
6957.544721	0.097540	0.200641	13897.110352
6957.545784	0.097573	0.200641	14000.831055
6958.584862	1.077371	0.164056	551.613770
6958.585896	1.481338	0.164056	2083.317139
6958.586780	1.464818	0.164056	3378.216309
6958.587756	1.428321	0.164056	4772.257812
6958.588799	1.387767	0.164056	6219.699219
6958.589731	1.353402	0.164056	7481.070312
6958.590598	1.322249	0.164056	8627.459961
6958.591684	1.286342	0.164056	10024.426758
6958.592702	1.253536	0.164056	11300.526367
6958.593583	1.226323	0.164056	12380.916992
6958.594578	0.669521	0.164056	13047.090820
6958.595629	0.100583	0.164056	13152.803711
6958.596531	0.097350	0.164056	13240.613281
6958.597390	0.097427	0.164056	13324.302734
6958.598479	0.097504	0.164056	13430.484375
6958.599441	0.097423	0.164056	13524.205078
6958.600325	0.097416	0.164056	13610.320312
6958.601313	0.097599	0.164056	13706.748047
6958.602369	0.097526	0.164056	13809.735352
6958.603260	0.097401	0.164056	13896.519531
6958.604123	0.097584	0.164056	13980.734375
6959.592440	1.051842	0.204343	504.884216
6959.593322	1.475116	0.204343	1805.936523
6959.594185	1.471454	0.204343	3075.801270
6959.595241	1.432167	0.204343	4588.169434
6959.596181	1.396003	0.204343	5900.412598
6959.597057	1.363546	0.204343	7094.878906
6959.598024	1.329902	0.204343	8380.894531
6959.599067	1.293776	0.204343	9730.302734
6959.599965	1.264556	0.204343	10865.874023
6959.600908	1.235295	0.204343	12030.757812
6959.601975	0.892291	0.204343	12982.833008
6959.602920	0.119612	0.204343	13095.866211
6959.603781	0.097394	0.204343	13179.722656
6959.604865	0.097599	0.204343	13285.519531
6959.605861	0.097493	0.204343	13382.622070
6959.606751	0.097452	0.204343	13469.354492
6959.607732	0.097643	0.204343	13565.142578
6959.608773	0.097518	0.204343	13666.659180
6959.609688	0.097478	0.204343	13755.851562
6959.610545	0.097526	0.204343	13839.430664
6959.611626	0.097599	0.204343	13944.934570
6960.654885	1.085413	0.166747	562.243713
6960.655876	1.481221	0.166747	2030.133545
6960.656775	1.465452	0.166747	3347.574707
6960.657786	1.427208	0.166747	4790.482422
6960.658840	1.387445	0.166747	6252.849609
6960.659722	1.354266	0.166747	7447.312500
6960.660595	1.322424	0.166747	8601.789062
6960.661713	1.286103	0.166747	10039.652344
6960.662671	1.255148	0.166747	11242.083984
6960.663538	1.228279	0.166747	12307.001953
6960.664585	0.689963	0.166747	13029.393555
6960.665630	0.101162	0.166747	13135.108398
6960.666508	0.097496	0.166747	13220.709961
6960.667436	0.097617	0.166747	13311.298828
6960.668518	0.097526	0.166747	13416.821289
6960.669448	0.097537	0.166747	13507.530273
6960.670315	0.097515	0.166747	13592.075195
6960.671350	0.097625	0.166747	13693.116211
6960.672363	0.097467	0.166747	13791.850586
6960.673252	0.097489	0.166747	13878.518555
6960.674215	0.097599	0.166747	13972.505859
6961.660971	1.096124	0.201100	593.003174
6961.662033	1.481616	0.201100	2166.479492
6961.662938	1.461954	0.201100	3489.548340
6961.663810	1.426783	0.201100	4733.703613
6961.664928	1.385621	0.201100	6282.828125
6961.665894	1.350967	0.201100	7587.862305
6961.666764	1.319960	0.201100	8736.227539
6961.667786	1.285712	0.201100	10050.224609
6961.668832	1.252485	0.201100	11360.324219
6961.669733	1.224364	0.201100	12463.476562
6961.670660	0.686228	0.201100	13099.610352
6961.671741	0.100067	0.201100	13207.783203
6961.672684	0.097350	0.201100	13299.583984
6961.673543	0.097478	0.201100	13383.317383
6961.674607	0.097496	0.201100	13487.053711
6961.675618	0.097441	0.201100	13585.567383
6961.676503	0.097482	0.201100	13671.838867
6961.677469	0.097518	0.201100	13766.041992
6961.678503	0.097551	0.201100	13866.910156
6961.679424	0.097449	0.201100	13956.660156
6961.680281	0.097471	0.201100	14040.192383
6962.725416	1.087852	0.164889	578.737000
6962.726297	1.478042	0.164889	1880.892090
6962.727226	1.467455	0.164889	3244.157715
6962.728305	1.426974	0.164889	4783.862305
6962.729238	1.390646	0.164889	6081.334961
6962.730108	1.358811	0.164889	7263.500488
6962.731156	1.322087	0.164889	8649.047852
6962.732182	1.287609	0.164889	9970.134766
6962.733074	1.258803	0.164889	11092.986328
6962.734042	1.229110	0.164889	12282.764648
6962.735100	0.689890	0.164889	13012.667969
6962.736020	0.103868	0.164889	13108.226562
6962.736879	0.097551	0.164889	13192.023437
6962.737963	0.097650	0.164889	13297.875977
6962.738959	0.097500	0.164889	13394.986328
6962.739850	0.097383	0.164889	13481.754883
6962.740846	0.097562	0.164889	13578.926758
6962.741894	0.097581	0.164889	13681.191406
6962.742796	0.097482	0.164889	13769.120117
6962.743657	0.097581	0.164889	13853.136719
6962.744767	0.097577	0.164889	13961.447266
6963.728854	1.031558	0.203239	462.137848
6963.729733	1.473622	0.203239	1757.451294
6963.730717	1.469019	0.203239	3202.965576
6963.731774	1.429303	0.203239	4713.738770
6963.732689	1.393817	0.203239	5989.081543
6963.733557	1.360389	0.203239	7169.899414
6963.734662	1.322754	0.203239	8631.542969
6963.735633	1.289769	0.203239	9883.909180
6963.736515	1.261458	0.203239	10996.514648
6963.737581	1.228433	0.203239	12306.023437
6963.738632	0.683599	0.203239	13024.485352
6963.739527	0.104279	0.203239	13117.814453
6963.740463	0.097504	0.203239	13209.078125
6963.741506	0.097562	0.203239	13310.835937
6963.742442	0.097584	0.203239	13402.174805
6963.743298	0.097551	0.203239	13485.678711
6963.744359	0.097548	0.203239	13589.176758
6963.745392	0.097522	0.203239	13689.916992
6963.746271	0.097500	0.203239	13775.619141
6963.747245	0.097676	0.203239	13870.754883
6963.748307	0.097650	0.203239	13974.458984
6964.795841	1.002916	0.163387	433.259796
6964.796707	1.471055	0.163387	1707.193115
6964.797819	1.465470	0.163387	3336.795654
6964.798813	1.427285	0.163387	4755.517090
6964.799710	1.393220	0.163387	6005.235352
6964.800700	1.356943	0.163387	7348.609375
6964.801769	1.320267	0.163387	8759.974609
6964.802673	1.288777	0.163387	9925.029297
6964.803565	1.259209	0.163387	11048.244141
6964.804650	1.226254	0.163387	12378.729492
6964.805613	0.713961	0.163387	13066.274414
6964.806477	0.107996	0.163387	13159.583008
6964.807520	0.097537	0.163387	13261.313477
6964.808555	0.097522	0.163387	13362.249023
6964.809433	0.097504	0.163387	13447.857422
6964.810381	0.097529	0.163387	13540.315430
6964.811451	0.097559	0.163387	13644.703125
6964.812383	0.097401	0.163387	13735.481445
6964.813238	0.097540	0.163387	13818.877930
6964.814286	0.097581	0.163387	13921.142578
6964.815306	0.097482	0.163387	14020.574219
6965.798403	1.057573	0.202546	520.325989
6965.799284	1.476244	0.202546	1820.896729
6965.800210	1.469158	0.202546	3181.336914
6965.801267	1.429285	0.202546	4692.090820
6965.802210	1.393099	0.202546	6005.783691
6965.803081	1.361327	0.202546	7191.499512
6965.804138	1.323937	0.202546	8590.900391
6965.805165	1.289513	0.202546	9915.230469
6965.806044	1.260143	0.202546	11022.896484
6965.807003	1.230967	0.202546	12203.393555
6965.808077	0.748224	0.202546	13006.986328
6965.808991	0.106875	0.202546	13104.669922
6965.809856	0.097463	0.202546	13188.975586
6965.810918	0.097603	0.202546	13292.629883
6965.811928	0.097449	0.202546	13391.052734
6965.812817	0.097540	0.202546	13477.765625
6965.813790	0.097533	0.202546	13572.665039
6965.814848	0.097584	0.202546	13675.909180
6965.815760	0.097526	0.202546	13764.852539
6965.816622	0.097617	0.202546	13848.999023
6965.817714	0.097621	0.202546	13955.600586
6966.866362	0.999067	0.160756	425.602692
6966.867430	1.478155	0.160756	2004.272705
6966.868449	1.461669	0.160756	3493.712891
6966.869333	1.427842	0.160756	4755.924805
6966.870334	1.390558	0.160756	6147.873047
6966.871381	1.351996	0.160756	7563.412598
6966.872288	1.319615	0.160756	8760.303711
6966.873152	1.289341	0.160756	9874.293945
6966.874260	1.255023	0.160756	11264.859375
6966.875261	1.223778	0.160756	12489.861328
6966.876148	0.695742	0.160756	13106.984375
6966.877156	0.104451	0.160756	13212.270508
6966.878222	0.097533	0.160756	13316.240234
6966.879108	0.097544	0.160756	13402.664062
6966.879990	0.097529	0.160756	13488.684570
6966.881082	0.097584	0.160756	13595.246094
6966.882034	0.097416	0.160756	13687.986328
6966.882943	0.097471	0.160756	13776.586914
6966.883817	0.097573	0.160756	13861.866211
6966.884882	0.097562	0.160756	13965.769531
6966.885777	0.097526	0.160756	14053.054687
6967.866294	0.998518	0.202272	422.373138
6967.867372	1.478599	0.202272	2016.302612
6967.868379	1.461768	0.202272	3488.302490
6967.869274	1.427501	0.202272	4765.916016
6967.870247	1.390616	0.202272	6118.985840
6967.871296	1.352205	0.202272	7537.448730
6967.872207	1.319908	0.202272	8739.885742
6967.873071	1.289908	0.202272	9854.366211
6967.874159	1.255759	0.202272	11220.632812
6967.875151	1.224745	0.202272	12435.580078
6967.876036	0.757683	0.202272	13106.129883
6967.877053	0.107900	0.202272	13215.864258
6967.878106	0.097467	0.202272	13318.497070
6967.878982	0.097570	0.202272	13403.967773
6967.879838	0.097540	0.202272	13487.461914
6967.880945	0.097581	0.202272	13595.483398
6967.881907	0.097529	0.202272	13689.306641
6967.882776	0.097515	0.202272	13774.046875
6967.883798	0.097632	0.202272	13873.826172
6967.884833	0.097507	0.202272	13974.746094
6967.885720	0.097405	0.202272	14061.144531
6968.934892	1.051179	0.161667	489.849487
6968.935776	1.474937	0.161667	1793.693481
6968.936697	1.470040	0.161667	3147.600586
6968.937572	1.436660	0.161667	4404.678223
6968.938576	1.399131	0.161667	5809.405273
6968.939505	1.364249	0.161667	7076.792969
6968.940391	1.332561	0.161667	8257.442383
6968.941400	1.299408	0.161667	9568.544922
6968.942303	1.268738	0.161667	10714.214844
6968.943182	1.241166	0.161667	11805.199219
6968.944121	1.130262	0.161667	12866.515625
6968.945123	0.206349	0.161667	13073.277344
6968.946020	0.097482	0.161667	13160.718750
6968.946913	0.097500	0.161667	13247.786133
6968.947901	0.097526	0.161667	13344.141602
6968.948823	0.097452	0.161667	13433.993164
6968.949756	0.097599	0.161667	13525.052734
6968.950620	0.097496	0.161667	13609.290039
6968.951655	0.097551	0.161667	13710.255859
6968.952542	0.097537	0.161667	13796.770508
6968.953400	0.097584	0.161667	13880.498047
6969.936312	1.014532	0.202844	431.176300
6969.937420	1.479675	0.202844	2070.656494
6969.938393	1.462236	0.202844	3493.412354
6969.939264	1.428453	0.202844	4737.595215
6969.940321	1.388331	0.202844	6205.061523
6969.941364	1.350293	0.202844	7613.416992
6969.942264	1.318403	0.202844	8799.979492
6969.943211	1.287323	0.202844	10019.074219
6969.944257	1.253320	0.202844	11330.046875
6969.945190	1.224426	0.202844	12472.436523
6969.946065	0.735930	0.202844	13116.375000
6969.947131	0.102330	0.202844	13225.458984
6969.948141	0.097430	0.202844	13323.863281
6969.949017	0.097485	0.202844	13409.260742
6969.949992	0.097636	0.202844	13504.455078
6969.951033	0.097507	0.202844	13605.959961
6969.951953	0.097434	0.202844	13695.599609
6969.952809	0.097474	0.202844	13779.038086
6969.953886	0.097551	0.202844	13884.100586
6969.954882	0.097496	0.202844	13981.207031
6969.955753	0.097456	0.202844	14066.090820
6971.005372	0.990370	0.162549	421.897552
6971.006243	1.471000	0.162549	1703.138306
6971.007138	1.471842	0.162549	3020.437012
6971.008185	1.433665	0.162549	4521.483887
6971.009085	1.399559	0.162549	5781.087402
6971.009949	1.366926	0.162549	6962.111328
6971.011068	1.328613	0.162549	8448.830078
6971.011958	1.297233	0.162549	9603.367187
6971.012829	1.268441	0.162549	10708.179687
6971.013835	1.237072	0.162549	11952.673828
6971.014831	1.028009	0.162549	12976.571289
6971.015728	0.163162	0.162549	13122.927734
6971.016586	0.097379	0.162549	13206.479492
6971.017682	0.097471	0.162549	13313.307617
6971.018598	0.097511	0.162549	13402.627930
6971.019470	0.097438	0.162549	13487.593750
6971.020464	0.097507	0.162549	13584.515625
6971.021451	0.097430	0.162549	13680.679687
6971.022335	0.097460	0.162549	13766.833984
6971.023194	0.097500	0.162549	13850.586914
6971.024278	0.097522	0.162549	13956.300781
6972.005310	0.993336	0.204174	421.174561
6972.006228	1.470231	0.204174	1770.846313
6972.007316	1.464602	0.204174	3364.333496
6972.008272	1.428197	0.204174	4729.689941
6972.009137	1.394517	0.204174	5935.946777
6972.010198	1.356083	0.204174	7374.750488
6972.011230	1.320135	0.204174	8737.129883
6972.012128	1.289630	0.204174	9895.217773
6972.013094	1.258396	0.204174	11110.828125
6972.014143	1.225734	0.204174	12396.623047
6972.015076	0.724611	0.204174	13072.684570
6972.015942	0.108798	0.204174	13166.903320
6972.017009	0.097672	0.204174	13271.119141
6972.018010	0.097570	0.204174	13368.786133
6972.018889	0.097559	0.204174	13454.540039
6972.019805	0.097566	0.204174	13543.910156
6972.020664	0.097441	0.204174	13627.612305
6972.021642	0.097603	0.204174	13723.067383
6972.022563	0.097533	0.204174	13812.895508
6972.023441	0.097562	0.204174	13898.554687
6972.024445	0.097504	0.204174	13996.448242
6973.073951	1.075723	0.164213	549.694214
6973.074889	1.479148	0.164213	1937.135010
6973.075760	1.468455	0.164213	3216.158936
6973.076713	1.432339	0.164213	4581.177734
6973.077754	1.392041	0.164213	6030.292480
6973.078652	1.359444	0.164213	7251.073730
6973.079619	1.325497	0.164213	8532.829102
6973.080678	1.289616	0.164213	9898.532227
6973.081610	1.259407	0.164213	11072.298828
6973.082484	1.231480	0.164213	12148.612305
6973.083568	0.776949	0.164213	12990.825195
6973.084567	0.104425	0.164213	13095.145508
6973.085454	0.097449	0.164213	13181.583008
6973.086424	0.097617	0.164213	13276.271484
6973.087470	0.097555	0.164213	13378.313477
6973.088379	0.097460	0.164213	13466.904297
6973.089241	0.097522	0.164213	13550.967773
6973.090340	0.097463	0.164213	13658.080078
6973.091328	0.097427	0.164213	13754.337891
6973.092211	0.097449	0.164213	13840.384766
6973.093215	0.097625	0.164213	13938.399414
6974.075331	1.006007	0.203803	433.589050
6974.076199	1.471300	0.203803	1710.677490
6974.077191	1.469608	0.203803	3168.528809
6974.078132	1.433800	0.203803	4517.734375
6974.079057	1.398625	0.203803	5811.462891
6974.079930	1.365363	0.203803	7003.424316
6974.080971	1.329822	0.203803	8387.768555
6974.081868	1.299009	0.203803	9552.979492
6974.082746	1.269906	0.203803	10667.957031
6974.083718	1.239767	0.203803	11873.010742
6974.084695	1.116716	0.203803	12964.042969
6974.085623	0.198838	0.203803	13148.564453
6974.086485	0.097405	0.203803	13232.527344
6974.087496	0.097529	0.203803	13331.129883
6974.088399	0.097408	0.203803	13419.089844
6974.089266	0.097394	0.203803	13503.530273
6974.090299	0.097621	0.203803	13604.373047
6974.091271	0.097397	0.203803	13699.042969
6974.092143	0.097419	0.203803	13783.993164
6974.093002	0.097504	0.203803	13867.749023
6974.094138	0.097529	0.203803	13978.541992
6975.143954	1.067831	0.162513	538.186707
6975.144857	1.477885	0.162513	1872.716553
6975.145723	1.468473	0.162513	3144.414062
6975.146849	1.427717	0.162513	4752.023926
6975.147826	1.390517	0.162513	6110.559570
6975.148691	1.358309	0.162513	7285.497070
6975.149777	1.320516	0.162513	8719.578125
6975.150813	1.286012	0.162513	10051.886719
6975.151699	1.256642	0.162513	11165.271484
6975.152628	1.227784	0.162513	12305.882812
6975.153705	0.644853	0.162513	13000.389648
6975.154637	0.101719	0.162513	13095.191406
6975.155504	0.097449	0.162513	13179.679687
6975.156547	0.097617	0.162513	13281.494141
6975.157558	0.097452	0.162513	13380.018555
6975.158444	0.097496	0.162513	13466.400391
6975.159392	0.097474	0.162513	13558.805664
6975.160448	0.097570	0.162513	13661.838867
6975.161381	0.097423	0.162513	13752.734375
6975.162240	0.097452	0.162513	13836.446289
6975.163320	0.097500	0.162513	13941.746094
