time (s)	coil I (A)	last det (V)	int current (uC)
7351.439418	1.110864	0.149183	578.760315
7351.440350	1.483909	0.149183	1961.763184
7351.441218	1.471644	0.149183	3239.150391
7351.442276	1.431237	0.149183	4753.398437
7351.443308	1.391525	0.149183	6189.452148
7351.444204	1.358990	0.149183	7407.107422
7351.445185	1.325123	0.149183	8707.053711
7351.446251	1.288491	0.149183	10080.584961
7351.447172	1.258191	0.149183	11239.378906
7351.448047	1.230454	0.149183	12316.026367
7351.449151	0.640371	0.149183	13022.996094
7351.450135	0.100338	0.149183	13121.728516
7351.451027	0.097496	0.149183	13208.695312
7351.452011	0.097566	0.149183	13304.700195
7351.453073	0.097540	0.149183	13408.288086
7351.453963	0.097507	0.149183	13495.069336
7351.454827	0.097504	0.149183	13579.312500
7351.455919	0.097676	0.149183	13685.974609
7351.456876	0.097456	0.149183	13779.240234
7351.457740	0.097401	0.149183	13863.394531
7351.458792	0.097551	0.149183	13966.018555
7352.509938	1.053823	0.168475	485.812500
7352.510821	1.478199	0.168475	1791.062500
7352.511701	1.475537	0.168475	3089.535156
7352.512707	1.438249	0.168475	4536.414062
7352.513645	1.401478	0.168475	5851.000977
7352.514524	1.369003	0.168475	7054.354492
7352.515491	1.333857	0.168475	8344.194336
7352.516521	1.298430	0.168475	9681.577148
7352.517413	1.269196	0.168475	10813.699219
7352.518287	1.240821	0.168475	11898.177734
7352.519375	0.998192	0.168475	12984.210937
7352.520298	0.149301	0.168475	13122.015625
7352.521176	0.097412	0.168475	13207.542969
7352.522140	0.097570	0.168475	13301.599609
7352.523164	0.097434	0.168475	13401.372070
7352.524058	0.097438	0.168475	13488.481445
7352.524918	0.097500	0.168475	13572.331055
7352.525990	0.097595	0.168475	13676.953125
7352.526921	0.097643	0.168475	13767.858398
7352.527781	0.097617	0.168475	13851.809570
7352.528846	0.097584	0.168475	13955.736328
7353.508867	1.058837	0.160668	524.124084
7353.509860	1.484125	0.160668	1997.860107
7353.510757	1.470055	0.160668	3316.499512
7353.511747	1.432332	0.160668	4734.507812
7353.512806	1.391964	0.160668	6208.597656
7353.513711	1.357214	0.160668	7436.876465
7353.514640	1.325709	0.160668	8668.459961
7353.515508	1.294618	0.160668	9792.188477
7353.516562	1.261575	0.160668	11121.888672
7353.517444	1.233739	0.160668	12210.046875
7353.518316	0.995870	0.160668	13078.446289
7353.519349	0.139299	0.160668	13222.342773
7353.520248	0.097412	0.160668	13309.916016
7353.521166	0.097485	0.160668	13399.407227
7353.522048	0.097511	0.160668	13485.412109
7353.523074	0.097544	0.160668	13585.492187
7353.523962	0.097471	0.160668	13672.045898
7353.524835	0.097522	0.160668	13757.182617
7353.525779	0.097599	0.160668	13849.316406
7353.526756	0.097423	0.160668	13944.499023
7353.527677	0.097504	0.160668	14034.299805
7354.580925	1.003652	0.161312	428.559540
7354.581998	1.482063	0.161312	2018.813110
7354.583012	1.465492	0.161312	3504.821777
7354.583905	1.430636	0.161312	4782.379883
7354.584878	1.393788	0.161312	6138.535645
7354.585952	1.354222	0.161312	7592.970703
7354.586869	1.321794	0.161312	8805.056641
7354.587737	1.291278	0.161312	9925.885742
7354.588828	1.256993	0.161312	11297.265625
7354.589822	1.225957	0.161312	12515.867187
7354.590709	0.702502	0.161312	13138.986328
7354.591722	0.105132	0.161312	13245.485352
7354.592783	0.097478	0.161312	13348.909180
7354.593656	0.097584	0.161312	13434.100586
7354.594520	0.097504	0.161312	13518.343750
7354.595623	0.097592	0.161312	13625.987305
7354.596577	0.097383	0.161312	13718.890625
7354.597434	0.097438	0.161312	13802.394531
7354.598473	0.097676	0.161312	13903.879883
7354.599514	0.097507	0.161312	14005.384766
7354.600404	0.097544	0.161312	14092.199219
7355.580854	0.994673	0.144494	418.757294
7355.581907	1.481334	0.144494	1978.602295
7355.582923	1.466184	0.144494	3468.245361
7355.583822	1.431636	0.144494	4755.286133
7355.584801	1.394308	0.144494	6120.313477
7355.585858	1.355186	0.144494	7552.744629
7355.586777	1.322904	0.144494	8768.493164
7355.587645	1.292285	0.144494	9890.197266
7355.588749	1.257250	0.144494	11278.201172
7355.589743	1.226206	0.144494	12497.049805
7355.590648	0.696848	0.144494	13127.697266
7355.591659	0.105048	0.144494	13233.900391
7355.592698	0.097390	0.144494	13335.088867
7355.593579	0.097471	0.144494	13420.960937
7355.594463	0.097526	0.144494	13507.173828
7355.595551	0.097515	0.144494	13613.269531
7355.596504	0.097430	0.144494	13706.121094
7355.597364	0.097375	0.144494	13789.864258
7355.598409	0.097467	0.144494	13891.717773
7355.599434	0.097368	0.144494	13991.520508
7355.600319	0.097350	0.144494	14077.674805
7356.646845	0.997079	0.175859	424.755585
7356.647757	1.473874	0.175859	1768.929077
7356.648836	1.468795	0.175859	3353.758789
7356.649796	1.432258	0.175859	4728.726562
7356.650666	1.398076	0.175859	5945.052734
7356.651734	1.359078	0.175859	7396.548340
7356.652754	1.323138	0.175859	8746.149414
7356.653639	1.292692	0.175859	9890.181641
7356.654627	1.261644	0.175859	11136.686523
7356.655673	1.228641	0.175859	12421.845703
7356.656598	0.741665	0.175859	13107.885742
7356.657457	0.110354	0.175859	13202.679687
7356.658535	0.097551	0.175859	13307.839844
7356.659537	0.097482	0.175859	13405.516602
7356.660411	0.097515	0.175859	13490.744141
7356.661389	0.097614	0.175859	13586.209961
7356.662462	0.097456	0.175859	13690.780273
7356.663345	0.097343	0.175859	13776.733398
7356.664256	0.097507	0.175859	13865.562500
7356.665128	0.097570	0.175859	13950.643555
7356.666155	0.097416	0.175859	14050.689453
7357.648907	1.059708	0.166299	531.973511
7357.649821	1.481565	0.166299	1886.123779
7357.650688	1.472681	0.166299	3162.937988
7357.651773	1.432061	0.166299	4716.723633
7357.652768	1.393378	0.166299	6103.134277
7357.653662	1.360690	0.166299	7319.590820
7357.654643	1.326522	0.166299	8620.909180
7357.655706	1.290685	0.166299	9992.907227
7357.656615	1.260707	0.166299	11138.889648
7357.657479	1.232666	0.166299	12203.913086
7357.658585	0.733788	0.166299	13015.482422
7357.659535	0.104165	0.166299	13114.439453
7357.660407	0.097485	0.166299	13199.446289
7357.661432	0.097646	0.166299	13299.534180
7357.662479	0.097493	0.166299	13401.609375
7357.663354	0.097551	0.166299	13486.966797
7357.664223	0.097555	0.166299	13571.742187
7357.665316	0.097690	0.166299	13678.517578
7357.666267	0.097445	0.166299	13771.187500
7357.667160	0.097522	0.166299	13858.274414
7357.668046	0.097474	0.166299	13944.636719
7358.716856	0.993087	0.165208	420.075867
7358.717832	1.475596	0.165208	1860.257324
7358.718895	1.467349	0.165208	3420.048828
7358.719810	1.431636	0.165208	4729.995605
7358.720677	1.397223	0.165208	5941.387695
7358.721791	1.357463	0.165208	7453.602051
7358.722771	1.323040	0.165208	8750.180664
7358.723657	1.292878	0.165208	9895.670898
7358.724676	1.259868	0.165208	11179.476562
7358.725729	1.227393	0.165208	12471.920898
7358.726618	0.735630	0.165208	13125.895508
7358.727504	0.109677	0.165208	13223.069336
7358.728596	0.097581	0.165208	13329.626953
7358.729551	0.097434	0.165208	13422.676758
7358.730414	0.097452	0.165208	13506.778320
7358.731446	0.097636	0.165208	13607.538086
7358.732477	0.097478	0.165208	13708.038086
7358.733351	0.097427	0.165208	13793.189453
7358.734264	0.097592	0.165208	13882.291016
7358.735331	0.097544	0.165208	13986.370117
7358.736277	0.097489	0.165208	14078.594727
7359.719370	1.009061	0.153945	441.968811
7359.720249	1.475566	0.153945	1738.991699
7359.721112	1.475057	0.153945	3011.966309
7359.722238	1.435393	0.153945	4628.218750
7359.723128	1.400544	0.153945	5874.703125
7359.723996	1.368303	0.153945	7062.390137
7359.725069	1.330312	0.153945	8489.815430
7359.726042	1.296746	0.153945	9751.548828
7359.726905	1.268123	0.153945	10845.938477
7359.727800	1.238903	0.153945	11954.755859
7359.728899	0.956016	0.153945	13005.416992
7359.729795	0.138248	0.153945	13129.287109
7359.730657	0.097365	0.153945	13213.214844
7359.731779	0.097672	0.153945	13322.802734
7359.732748	0.097485	0.153945	13417.265625
7359.733614	0.097408	0.153945	13501.621094
7359.734645	0.097529	0.153945	13602.173828
7359.735676	0.097614	0.153945	13702.813477
7359.736565	0.097533	0.153945	13789.520508
7359.737496	0.097463	0.153945	13880.258789
7359.738560	0.097654	0.153945	13984.162109
7360.787468	1.042379	0.161997	528.486206
7360.788534	1.483795	0.161997	2110.211914
7360.789468	1.465485	0.161997	3478.974609
7360.790334	1.431306	0.161997	4718.485840
7360.791404	1.391038	0.161997	6206.895996
7360.792429	1.353065	0.161997	7593.788086
7360.793312	1.322776	0.161997	8761.798828
7360.794307	1.289279	0.161997	10044.630859
7360.795370	1.254558	0.161997	11378.226562
7360.796275	1.226147	0.161997	12487.889648
7360.797142	0.712258	0.161997	13105.417969
7360.798213	0.101484	0.161997	13214.107422
7360.799208	0.097434	0.161997	13311.054687
7360.800101	0.097548	0.161997	13398.165039
7360.801098	0.097650	0.161997	13495.522461
7360.802141	0.097657	0.161997	13597.378906
7360.803028	0.097518	0.161997	13683.877930
7360.803894	0.097511	0.161997	13768.322266
7360.805010	0.097639	0.161997	13877.287109
7360.805972	0.097555	0.161997	13971.134766
7360.806839	0.097507	0.161997	14055.673828
7361.787411	1.046429	0.165111	536.818298
7361.788484	1.484238	0.165111	2129.406006
7361.789414	1.465082	0.165111	3491.932129
7361.790282	1.429761	0.165111	4732.964355
7361.791365	1.388925	0.165111	6237.169922
7361.792365	1.351846	0.165111	7589.015625
7361.793261	1.320502	0.165111	8772.185547
7361.794256	1.287561	0.165111	10053.308594
7361.795300	1.253851	0.165111	11362.329102
7361.796206	1.225316	0.165111	12472.465820
7361.797079	0.706941	0.165111	13089.625000
7361.798178	0.101279	0.165111	13200.930664
7361.799152	0.097394	0.165111	13295.791992
7361.800010	0.097412	0.165111	13379.371094
7361.801101	0.097449	0.165111	13485.687500
7361.802142	0.097313	0.165111	13586.990234
7361.803022	0.097416	0.165111	13672.715820
7361.803942	0.097493	0.165111	13762.409180
7361.805039	0.097507	0.165111	13869.375000
7361.805964	0.097511	0.165111	13959.572266
7361.806827	0.097518	0.165111	14043.730469
7362.856395	1.014005	0.163653	444.134277
7362.857268	1.474698	0.163653	1731.546021
7362.858258	1.472736	0.163653	3189.554199
7362.859223	1.436202	0.163653	4575.489258
7362.860146	1.400493	0.163653	5868.144531
7362.861013	1.367640	0.163653	7053.888672
7362.862063	1.331580	0.163653	8452.046875
7362.862943	1.300203	0.163653	9596.225586
7362.863827	1.271213	0.163653	10719.978516
7362.864776	1.241664	0.163653	11898.317383
7362.865755	1.114109	0.163653	12989.030273
7362.866682	0.189188	0.163653	13164.408203
7362.867552	0.097412	0.163653	13249.156250
7362.868597	0.097537	0.163653	13351.082031
7362.869490	0.097595	0.163653	13438.234375
7362.870358	0.097548	0.163653	13522.905273
7362.871222	0.097570	0.163653	13607.205078
7362.872280	0.097584	0.163653	13710.449219
7362.873155	0.097540	0.163653	13795.796875
7362.874010	0.097401	0.163653	13879.075195
7362.875084	0.097559	0.163653	13983.853516
7363.859394	1.003184	0.158049	429.362579
7363.860260	1.473409	0.158049	1705.335083
7363.861370	1.468674	0.158049	3335.563477
7363.862333	1.431954	0.158049	4714.535645
7363.863207	1.398270	0.158049	5936.624023
7363.864259	1.359393	0.158049	7366.705566
7363.865300	1.322831	0.158049	8743.772461
7363.866199	1.291912	0.158049	9905.201172
7363.867158	1.261274	0.158049	11114.763672
7363.868216	1.227978	0.158049	12413.964844
7363.869153	0.732675	0.158049	13100.480469
7363.870011	0.109607	0.158049	13194.523437
7363.871081	0.097463	0.158049	13298.809570
7363.872094	0.097408	0.158049	13397.484375
7363.872969	0.097372	0.158049	13482.684570
7363.873883	0.097467	0.158049	13571.769531
7363.874744	0.097445	0.158049	13655.669922
7363.875714	0.097357	0.158049	13750.106445
7363.876638	0.097401	0.158049	13840.105469
7363.877518	0.097412	0.158049	13925.828125
7363.878530	0.097463	0.158049	14024.460937
7364.928022	1.069852	0.168169	541.345276
7364.928965	1.482173	0.168169	1939.034180
7364.929827	1.471626	0.168169	3207.575684
7364.930881	1.431313	0.168169	4716.180176
7364.931922	1.391946	0.168169	6165.195801
7364.932814	1.358862	0.168169	7377.300781
7364.933781	1.324801	0.168169	8658.382812
7364.934847	1.288652	0.168169	10032.085937
7364.935769	1.258685	0.168169	11192.593750
7364.936641	1.230813	0.168169	12265.862305
7364.937732	0.681753	0.168169	13009.654297
7364.938731	0.101063	0.168169	13110.616211
7364.939618	0.097412	0.168169	13197.020508
7364.940609	0.097577	0.168169	13293.718750
7364.941665	0.097515	0.168169	13396.694336
7364.942565	0.097397	0.168169	13484.351562
7364.943429	0.097617	0.168169	13568.692383
7364.944547	0.097548	0.168169	13677.750977
7364.945512	0.097379	0.168169	13771.721680
7364.946377	0.097405	0.168169	13855.976562
7364.947455	0.097588	0.168169	13961.176758
7365.926843	0.994581	0.159552	418.718719
7365.927908	1.480770	0.159552	1995.739014
7365.928856	1.467674	0.159552	3387.094482
7365.929733	1.433895	0.159552	4644.620605
7365.930667	1.397893	0.159552	5950.252930
7365.931730	1.358906	0.159552	7394.770508
7365.932617	1.327467	0.159552	8572.233398
7365.933542	1.295431	0.159552	9770.506836
7365.934605	1.260919	0.159552	11110.864258
7365.935542	1.231721	0.159552	12264.987305
7365.936416	0.938335	0.159552	13085.091797
7365.937461	0.116045	0.159552	13206.358398
7365.938492	0.097328	0.159552	13306.703125
7365.939378	0.097551	0.159552	13393.133789
7365.940335	0.097650	0.159552	13486.584961
7365.941385	0.097606	0.159552	13589.071289
7365.942318	0.097511	0.159552	13680.048828
7365.943177	0.097456	0.159552	13763.763672
7365.944261	0.097617	0.159552	13869.581055
7365.945263	0.097507	0.159552	13967.283203
7365.946150	0.097485	0.159552	14053.752930
7366.994949	1.054325	0.172592	522.945190
7366.995827	1.478287	0.172592	1820.881470
7366.996765	1.470886	0.172592	3200.572754
7366.997859	1.430057	0.172592	4765.055664
7366.998796	1.393667	0.172592	6070.921875
7366.999656	1.360979	0.172592	7241.363770
7367.000694	1.324515	0.172592	8616.210937
7367.001737	1.289209	0.172592	9960.855469
7367.002629	1.260432	0.172592	11085.161133
7367.003602	1.230366	0.172592	12282.307617
7367.004682	0.679032	0.172592	13015.662109
7367.005598	0.103312	0.172592	13110.295898
7367.006462	0.097350	0.172592	13194.406250
7367.007550	0.097445	0.172592	13300.426758
7367.008547	0.097397	0.172592	13397.532227
7367.009440	0.097372	0.172592	13484.485352
7367.010422	0.097581	0.172592	13580.309570
7367.011469	0.097522	0.172592	13682.415039
7367.012372	0.097321	0.172592	13770.295898
7367.013230	0.097397	0.172592	13853.863281
7367.014322	0.097434	0.172592	13960.261719
7367.998429	1.040969	0.166223	468.436157
7367.999311	1.476039	0.166223	1770.302368
7368.000303	1.470469	0.166223	3229.007324
7368.001366	1.430588	0.166223	4749.722656
7368.002273	1.395271	0.166223	6015.233398
7368.003139	1.361671	0.166223	7194.440430
7368.004258	1.323508	0.166223	8675.446289
7368.005225	1.291194	0.166223	9924.031250
7368.006093	1.262384	0.166223	11019.780273
7368.007146	1.229791	0.166223	12314.750000
7368.008193	0.692318	0.166223	13039.607422
7368.009082	0.104982	0.166223	13132.936523
7368.010014	0.097368	0.166223	13223.683594
7368.011076	0.097478	0.166223	13327.205078
7368.012027	0.097335	0.166223	13419.770508
7368.012893	0.097390	0.166223	13504.110352
7368.013950	0.097423	0.166223	13607.086914
7368.014962	0.097335	0.166223	13705.589844
7368.015843	0.097361	0.166223	13791.365234
7368.016817	0.097478	0.166223	13886.308594
7368.017863	0.097452	0.166223	13988.244141
7369.066940	0.993776	0.172249	423.348419
7369.067989	1.479928	0.172249	1975.792725
7369.068875	1.470234	0.172249	3278.420410
7369.069744	1.437056	0.172249	4527.221680
7369.070797	1.396849	0.172249	5998.104004
7369.071761	1.360455	0.172249	7309.583008
7369.072628	1.330565	0.172249	8463.183594
7369.073493	1.298317	0.172249	9586.227539
7369.074627	1.263453	0.172249	11018.983398
7369.075533	1.235024	0.172249	12137.915039
7369.076402	1.050095	0.172249	13050.447266
7369.077456	0.135095	0.172249	13192.837891
7369.078433	0.097401	0.172249	13287.999023
7369.079306	0.097518	0.172249	13373.132812
7369.080167	0.097592	0.172249	13457.159180
7369.081271	0.097460	0.172249	13564.754883
7369.082167	0.097515	0.172249	13652.127930
7369.083027	0.097441	0.172249	13735.927734
7369.084123	0.097533	0.172249	13842.824219
7369.085099	0.097485	0.172249	13937.969727
7369.085956	0.097504	0.172249	14021.530273
7370.064856	1.030781	0.167822	463.851562
7370.065740	1.476119	0.167822	1768.740967
7370.066715	1.472065	0.167822	3204.004883
7370.067777	1.431826	0.167822	4724.604492
7370.068688	1.395941	0.167822	5996.306641
7370.069553	1.362938	0.167822	7175.248047
7370.070659	1.325160	0.167822	8640.875000
7370.071634	1.291743	0.167822	9900.324219
7370.072558	1.262003	0.167822	11066.415039
7370.073428	1.234786	0.167822	12140.679687
7370.074472	0.865430	0.167822	13044.188477
7370.075365	0.121575	0.167822	13152.754883
7370.076266	0.097460	0.167822	13240.566406
7370.077137	0.097467	0.167822	13325.459961
7370.078178	0.097478	0.167822	13426.934570
7370.079062	0.097438	0.167822	13513.069336
7370.079933	0.097496	0.167822	13597.988281
7370.080917	0.097482	0.167822	13693.910156
7370.081858	0.097540	0.167822	13785.695312
7370.082779	0.097478	0.167822	13875.472656
7370.083641	0.097592	0.167822	13959.596680
7371.136555	1.062623	0.164132	571.691345
7371.137612	1.483685	0.164132	2139.946777
7371.138522	1.464965	0.164132	3473.064453
7371.139385	1.430574	0.164132	4707.649414
7371.140452	1.390393	0.164132	6191.198730
7371.141459	1.353765	0.164132	7554.439453
7371.142350	1.322432	0.164132	8732.726562
7371.143343	1.289183	0.164132	10012.885742
7371.144398	1.254913	0.164132	11336.819336
7371.145306	1.226514	0.164132	12450.494141
7371.146180	0.716638	0.164132	13076.835937
7371.147303	0.100935	0.164132	13190.185547
7371.148262	0.097482	0.164132	13283.670898
7371.149131	0.097511	0.164132	13368.408203
7371.150172	0.097650	0.164132	13470.061523
7371.151213	0.097573	0.164132	13571.635742
7371.152103	0.097566	0.164132	13658.469727
7371.153041	0.097573	0.164132	13749.993164
7371.154092	0.097668	0.164132	13852.642578
7371.155030	0.097493	0.164132	13944.090820
7371.155890	0.097621	0.164132	14028.044922
7372.135365	0.998914	0.169840	430.531769
7372.136232	1.473270	0.169840	1707.856934
7372.137309	1.469700	0.169840	3290.723633
7372.138256	1.433595	0.169840	4648.337891
7372.139124	1.399504	0.169840	5863.107910
7372.140064	1.364769	0.169840	7145.991211
7372.141131	1.326987	0.169840	8561.886719
7372.142034	1.295581	0.169840	9731.796875
7372.142985	1.265233	0.169840	10935.033203
7372.144054	1.231505	0.169840	12251.511719
7372.145003	0.866089	0.169840	13073.429687
7372.145871	0.122959	0.169840	13180.158203
7372.146941	0.097617	0.169840	13284.608398
7372.147948	0.097445	0.169840	13382.735352
7372.148835	0.097456	0.169840	13469.178711
7372.149812	0.097577	0.169840	13564.511719
7372.150880	0.097515	0.169840	13668.657227
7372.151792	0.097489	0.169840	13757.567383
7372.152655	0.097518	0.169840	13841.725586
7372.153737	0.097621	0.169840	13947.351562
7372.154717	0.097471	0.169840	14042.873047
7373.206593	1.109480	0.170747	614.651917
7373.207648	1.484399	0.170747	2180.693359
7373.208531	1.465214	0.170747	3474.477051
7373.209461	1.428834	0.170747	4803.292969
7373.210544	1.388031	0.170747	6306.530273
7373.211474	1.353710	0.170747	7565.480469
7373.212346	1.323036	0.170747	8719.167969
7373.213380	1.287612	0.170747	10050.558594
7373.214418	1.254412	0.170747	11352.637695
7373.215312	1.226847	0.170747	12449.438477
7373.216284	0.667156	0.170747	13097.914062
7373.217345	0.100159	0.170747	13204.182617
7373.218272	0.097456	0.170747	13294.524414
7373.219136	0.097496	0.170747	13378.761719
7373.220215	0.097592	0.170747	13484.063477
7373.221216	0.097394	0.170747	13581.554687
7373.222106	0.097456	0.170747	13668.291016
7373.223091	0.097504	0.170747	13764.332031
7373.224142	0.097522	0.170747	13866.827148
7373.225049	0.097427	0.170747	13955.193359
7373.225910	0.097515	0.170747	14039.153320
7374.205380	0.999602	0.163383	429.828888
7374.206394	1.476749	0.163383	1927.252686
7374.207465	1.465118	0.163383	3496.394531
7374.208361	1.429625	0.163383	4777.338867
7374.209242	1.394542	0.163383	6005.930664
7374.210346	1.355237	0.163383	7502.112305
7374.211301	1.322011	0.163383	8764.632812
7374.212163	1.292271	0.163383	9878.570312
7374.213197	1.258989	0.163383	11180.365234
7374.214247	1.226902	0.163383	12468.612305
7374.215126	0.742332	0.163383	13121.122070
7374.216054	0.109966	0.163383	13223.169922
7374.217122	0.097452	0.163383	13327.249023
7374.218071	0.097445	0.163383	13419.724609
7374.218937	0.097412	0.163383	13504.083984
7374.219968	0.097632	0.163383	13604.742187
7374.220990	0.097485	0.163383	13704.372070
7374.221884	0.097570	0.163383	13791.599609
7374.222836	0.097621	0.163383	13884.534180
7374.223899	0.097577	0.163383	13988.258789
7374.224821	0.097581	0.163383	14078.228516
7375.275454	0.998331	0.165550	424.290802
7375.276508	1.479880	0.165550	1984.084595
7375.277521	1.465565	0.165550	3468.702148
7375.278403	1.431105	0.165550	4730.936523
7375.279372	1.394795	0.165550	6082.492676
7375.280445	1.355072	0.165550	7536.484863
7375.281352	1.322432	0.165550	8735.930664
7375.282265	1.291399	0.165550	9914.977539
7375.283150	1.262303	0.165550	11032.116211
7375.284175	1.230846	0.165550	12293.733398
7375.285089	0.876683	0.165550	13095.021484
7375.285964	0.123398	0.165550	13202.995117
7375.286927	0.097537	0.165550	13296.922852
7375.287910	0.097599	0.165550	13392.862305
7375.288821	0.097493	0.165550	13481.677734
7375.289684	0.097445	0.165550	13565.772461
7375.290730	0.097463	0.165550	13667.718750
7375.291605	0.097504	0.165550	13753.034180
7375.292472	0.097595	0.165550	13837.649414
7375.293352	0.097610	0.165550	13923.545898
7375.294402	0.097544	0.165550	14025.966797
7376.274379	1.019447	0.167315	441.420593
7376.275260	1.474673	0.167315	1740.607422
7376.276284	1.470417	0.167315	3246.314941
7376.277329	1.431050	0.167315	4741.761719
7376.278211	1.396571	0.167315	5973.537109
7376.279123	1.362290	0.167315	7215.945312
7376.280223	1.324380	0.167315	8672.763672
7376.281168	1.291824	0.167315	9893.537109
7376.282040	1.263116	0.167315	10994.974609
7376.283097	1.230685	0.167315	12295.808594
7376.284135	0.726639	0.167315	13050.060547
7376.285008	0.107582	0.167315	13143.979492
7376.285968	0.097449	0.167315	13237.530273
7376.287033	0.097526	0.167315	13341.395508
7376.287951	0.097474	0.167315	13430.876953
7376.288816	0.097646	0.167315	13515.340820
7376.289873	0.097562	0.167315	13618.463867
7376.290886	0.097573	0.167315	13717.305664
7376.291780	0.097467	0.167315	13804.441406
7376.292752	0.097471	0.167315	13899.182617
7376.293810	0.097460	0.167315	14002.294922
7377.344962	1.007018	0.174719	434.024628
7377.345835	1.473864	0.174719	1720.707642
7377.346807	1.472831	0.174719	3152.299316
7377.347768	1.436166	0.174719	4532.454590
7377.348697	1.400475	0.174719	5833.495605
7377.349570	1.367710	0.174719	7027.506348
7377.350617	1.330931	0.174719	8420.991211
7377.351497	1.300745	0.174719	9565.646484
7377.352368	1.271591	0.174719	10673.202148
7377.353422	1.238606	0.174719	11978.693359
7377.354378	1.084735	0.174719	13015.700195
7377.355248	0.190023	0.174719	13181.020508
7377.356157	0.097493	0.174719	13269.641602
7377.357236	0.097617	0.174719	13374.970703
7377.358131	0.097496	0.174719	13462.229492
7377.358998	0.097522	0.174719	13546.781250
7377.360021	0.097654	0.174719	13646.680664
7377.360982	0.097540	0.174719	13740.416992
7377.361851	0.097595	0.174719	13825.227539
7377.362734	0.097603	0.174719	13911.410156
7377.363828	0.097533	0.174719	14018.111328
7378.346063	1.126282	0.164833	644.233154
7378.347122	1.484513	0.164833	2216.332520
7378.348011	1.464217	0.164833	3518.021973
7378.348929	1.428120	0.164833	4829.036133
7378.350028	1.387013	0.164833	6353.363281
7378.350969	1.352395	0.164833	7625.966797
7378.351832	1.321633	0.164833	8766.536133
7378.352901	1.286411	0.164833	10141.709961
7378.353918	1.253427	0.164833	11416.445312
7378.354795	1.225855	0.164833	12491.519531
7378.355771	0.639166	0.164833	13115.345703
7378.356814	0.099965	0.164833	13219.608398
7378.357734	0.097485	0.164833	13309.294922
7378.358598	0.097562	0.164833	13393.588867
7378.359663	0.097698	0.164833	13497.636719
7378.360663	0.097529	0.164833	13595.166016
7378.361548	0.097555	0.164833	13681.501953
7378.362422	0.097548	0.164833	13766.758789
7378.363407	0.097570	0.164833	13862.865234
7378.364365	0.097471	0.164833	13956.242187
7378.365285	0.097515	0.164833	14045.956055
7379.413971	1.021794	0.174239	455.720306
7379.414848	1.475054	0.174239	1749.342407
7379.415848	1.470549	0.174239	3219.891602
7379.416905	1.430808	0.174239	4732.255859
7379.417807	1.396117	0.174239	5991.553223
7379.418673	1.361763	0.174239	7170.839844
7379.419798	1.323820	0.174239	8660.136719
7379.420772	1.291447	0.174239	9918.005859
7379.421647	1.262842	0.174239	11022.992187
7379.422666	1.230740	0.174239	12277.116211
7379.423718	0.721970	0.174239	13036.628906
7379.424609	0.106479	0.174239	13131.501953
7379.425531	0.097496	0.174239	13221.393555
7379.426602	0.097625	0.174239	13325.949219
7379.427552	0.097423	0.174239	13418.500977
7379.428416	0.097478	0.174239	13502.721680
7379.429466	0.097518	0.174239	13605.116211
7379.430477	0.097511	0.174239	13703.700195
7379.431357	0.097603	0.174239	13789.590820
7379.432327	0.097592	0.174239	13884.254883
7379.433381	0.097668	0.174239	13987.197266
7380.412892	1.025006	0.171379	471.502838
7380.413926	1.483008	0.171379	2004.932861
7380.414807	1.469088	0.171379	3299.199707
7380.415675	1.435884	0.171379	4545.546875
7380.416683	1.397919	0.171379	5954.648926
7380.417585	1.363704	0.171379	7184.709473
7380.418503	1.331144	0.171379	8406.699219
7380.419398	1.299379	0.171379	9569.642578
7380.420446	1.266160	0.171379	10896.578125
7380.421341	1.238090	0.171379	12004.667969
7380.422221	1.132808	0.171379	13001.539062
7380.423215	0.201500	0.171379	13201.830078
7380.424168	0.097390	0.171379	13294.642578
7380.425037	0.097482	0.171379	13379.354492
7380.425988	0.097650	0.171379	13472.219727
7380.427008	0.097515	0.171379	13571.684570
7380.427888	0.097570	0.171379	13657.545898
7380.428748	0.097540	0.171379	13741.430664
7380.429807	0.097698	0.171379	13844.892578
7380.430743	0.097544	0.171379	13936.193359
7380.431614	0.097522	0.171379	14021.134766
7381.481982	1.027262	0.173691	504.385620
7381.483044	1.482345	0.173691	2078.635986
7381.483989	1.464891	0.173691	3462.958252
7381.484851	1.431471	0.173691	4696.886230
7381.485909	1.391133	0.173691	6168.704590
7381.486938	1.353757	0.173691	7561.720703
7381.487821	1.322834	0.173691	8729.783203
7381.488782	1.289927	0.173691	9969.402344
7381.489850	1.255422	0.173691	11310.193359
7381.490771	1.226323	0.173691	12439.636719
7381.491652	0.745649	0.173691	13096.553711
7381.492718	0.102393	0.173691	13205.704102
7381.493708	0.097379	0.173691	13302.109375
7381.494598	0.097540	0.173691	13388.919922
7381.495573	0.097603	0.173691	13484.082031
7381.496629	0.097610	0.173691	13587.158203
7381.497533	0.097566	0.173691	13675.357422
7381.498393	0.097434	0.173691	13759.150391
7381.499520	0.097705	0.173691	13869.263672
7381.500492	0.097430	0.173691	13963.965820
7381.501373	0.097365	0.173691	14049.744141
7382.485573	1.101482	0.171121	621.235779
7382.486628	1.484139	0.171121	2187.002930
7382.487515	1.464049	0.171121	3485.614502
7382.488402	1.428494	0.171121	4752.688477
7382.489514	1.387031	0.171121	6295.067383
7382.490487	1.351897	0.171121	7610.462891
7382.491366	1.320938	0.171121	8771.567383
7382.492398	1.286312	0.171121	10099.041992
7382.493435	1.253265	0.171121	11398.677734
7382.494325	1.225433	0.171121	12489.313477
7382.495283	0.652343	0.171121	13114.257812
7382.496337	0.099851	0.171121	13219.500977
7382.497270	0.097460	0.171121	13310.430664
7382.498130	0.097489	0.171121	13394.271484
7382.499201	0.097445	0.171121	13498.634766
7382.500210	0.097408	0.171121	13596.919922
7382.501093	0.097416	0.171121	13682.938477
7382.502049	0.097599	0.171121	13776.243164
7382.503101	0.097445	0.171121	13878.755859
7382.504013	0.097515	0.171121	13967.689453
7382.504870	0.097544	0.171121	14051.284180
7383.551427	1.005787	0.171621	433.494293
7383.552291	1.472875	0.171621	1706.058105
7383.553372	1.469117	0.171621	3294.174072
7383.554271	1.434694	0.171621	4583.963867
7383.555146	1.400896	0.171621	5809.748047
7383.556116	1.365388	0.171621	7134.174805
7383.557086	1.330455	0.171621	8424.716797
7383.557972	1.299917	0.171621	9576.443359
7383.558908	1.269408	0.171621	10764.609375
7383.559964	1.236573	0.171621	12070.430664
7383.560842	1.086522	0.171621	13024.397461
7383.561704	0.193048	0.171621	13190.804687
7383.562726	0.097529	0.171621	13290.479492
7383.563680	0.097478	0.171621	13383.473633
7383.564553	0.097544	0.171621	13468.629883
7383.565440	0.097544	0.171621	13555.151367
7383.566553	0.097504	0.171621	13663.672852
7383.567448	0.097449	0.171621	13750.889648
7383.568309	0.097430	0.171621	13834.777344
7383.569370	0.097485	0.171621	13938.208984
7383.570343	0.097441	0.171621	14033.019531
7384.555001	1.025299	0.165558	500.345947
7384.556075	1.482686	0.165558	2092.750244
7384.557025	1.464291	0.165558	3483.826416
7384.557895	1.430145	0.165558	4728.052734
7384.558965	1.389532	0.165558	6214.852539
7384.559981	1.352322	0.165558	7588.811523
7384.560878	1.320853	0.165558	8773.617187
7384.561758	1.290883	0.165558	9909.593750
7384.562731	1.260168	0.165558	11135.737305
7384.563698	1.229517	0.165558	12324.679687
7384.564635	0.809755	0.165558	13083.419922
7384.565499	0.116631	0.165558	13184.189453
7384.566542	0.097515	0.165558	13285.897461
7384.567422	0.097449	0.165558	13371.652344
7384.568296	0.097485	0.165558	13456.854492
7384.569195	0.097606	0.165558	13544.602539
7384.570189	0.097562	0.165558	13641.579102
7384.571103	0.097537	0.165558	13730.727539
7384.571988	0.097632	0.165558	13817.131836
7384.572993	0.097573	0.165558	13915.193359
7384.573906	0.097577	0.165558	14004.281250
7385.619938	1.040083	0.171484	476.357971
7385.620820	1.475878	0.171484	1778.082031
7385.621828	1.470253	0.171484	3260.096680
7385.622877	1.430230	0.171484	4760.407227
7385.623783	1.394806	0.171484	6024.101562
7385.624648	1.361642	0.171484	7201.921875
7385.625755	1.324332	0.171484	8667.958008
7385.626744	1.290092	0.171484	9943.858398
7385.627627	1.261707	0.171484	11057.945312
7385.628624	1.230370	0.171484	12284.624023
7385.629706	0.701532	0.171484	13043.681641
7385.630576	0.105483	0.171484	13135.452148
7385.631436	0.097507	0.171484	13219.308594
7385.632550	0.097599	0.171484	13328.034180
7385.633501	0.097460	0.171484	13420.718750
7385.634365	0.097452	0.171484	13504.917969
7385.635388	0.097599	0.171484	13604.761719
7385.636423	0.097533	0.171484	13705.708008
7385.637314	0.097599	0.171484	13792.668945
7385.638229	0.097639	0.171484	13882.008789
7385.639304	0.097632	0.171484	13986.962891
7386.626550	1.063810	0.169204	507.437317
7386.627429	1.477295	0.169204	1805.979492
7386.628443	1.469487	0.169204	3296.039551
7386.629495	1.429757	0.169204	4800.144043
7386.630388	1.394821	0.169204	6045.718750
7386.631249	1.361777	0.169204	7218.208984
7386.632359	1.324120	0.169204	8687.982422
7386.633314	1.291190	0.169204	9921.069336
7386.634187	1.262959	0.169204	11023.632812
7386.635307	1.227891	0.169204	12398.870117
7386.636370	0.612667	0.169204	13050.135742
7386.637242	0.102411	0.169204	13139.438477
7386.638171	0.097577	0.169204	13230.087891
7386.639233	0.097679	0.169204	13333.823242
7386.640171	0.097599	0.169204	13425.371094
7386.641038	0.097588	0.169204	13509.979492
7386.642097	0.097679	0.169204	13613.421875
7386.643120	0.097529	0.169204	13713.194336
7386.644009	0.097555	0.169204	13799.920898
7386.644973	0.097592	0.169204	13893.999023
7386.646033	0.097584	0.169204	13997.438477
7387.690436	0.996343	0.172624	427.431061
7387.691369	1.472743	0.172624	1801.500122
7387.692446	1.466821	0.172624	3381.266602
7387.693379	1.430749	0.172624	4716.155762
7387.694255	1.396791	0.172624	5939.744629
7387.695308	1.358068	0.172624	7369.790039
7387.696337	1.321985	0.172624	8730.112305
7387.697234	1.291600	0.172624	9888.677734
7387.698114	1.262897	0.172624	11000.026367
7387.699085	1.233138	0.172624	12197.404297
7387.700051	0.893416	0.172624	13060.443359
7387.700975	0.120073	0.172624	13171.390625
7387.701836	0.097441	0.172624	13255.288086
7387.702881	0.097471	0.172624	13357.144531
7387.703754	0.097570	0.172624	13442.323242
7387.704623	0.097537	0.172624	13527.083008
7387.705546	0.097471	0.172624	13617.048828
7387.706527	0.097500	0.172624	13712.696289
7387.707436	0.097529	0.172624	13801.350586
7387.708319	0.097526	0.172624	13887.465820
7387.709318	0.097668	0.172624	13985.036133
7388.693946	0.995317	0.160333	424.005219
7388.694945	1.475742	0.160333	1898.271729
7388.696001	1.465367	0.160333	3445.699707
7388.696903	1.430515	0.160333	4736.024414
7388.697777	1.394744	0.160333	5955.030273
7388.698903	1.355101	0.160333	7480.874512
7388.699870	1.322040	0.160333	8759.287109
7388.700745	1.291805	0.160333	9889.617187
7388.701792	1.257631	0.160333	11206.356445
7388.702830	1.225789	0.160333	12478.724609
7388.703731	0.702224	0.160333	13111.428711
7388.704681	0.107014	0.160333	13213.091797
7388.705744	0.097441	0.160333	13316.671875
7388.706676	0.097460	0.160333	13407.503906
7388.707534	0.097438	0.160333	13491.105469
7388.708596	0.097529	0.160333	13594.681641
7388.709597	0.097405	0.160333	13692.183594
7388.710477	0.097390	0.160333	13777.886719
7388.711402	0.097416	0.160333	13867.996094
7388.712264	0.097471	0.160333	13952.015625
7388.713226	0.097452	0.160333	14045.764648
7389.759938	1.002275	0.177228	430.978394
7389.760804	1.472999	0.177228	1706.595825
7389.761884	1.468649	0.177228	3292.736328
7389.762883	1.430555	0.177228	4721.861328
7389.763775	1.396168	0.177228	5967.243164
7389.764785	1.359921	0.177228	7340.762695
7389.765828	1.322948	0.177228	8720.597656
7389.766730	1.292285	0.177228	9886.239258
7389.767593	1.262501	0.177228	10975.777344
7389.768692	1.229700	0.177228	12327.217773
7389.769667	0.768245	0.177228	13076.255859
7389.770527	0.112050	0.177228	13172.618164
7389.771542	0.097515	0.177228	13271.595703
7389.772594	0.097489	0.177228	13374.154297
7389.773477	0.097471	0.177228	13460.220703
7389.774349	0.097559	0.177228	13545.291992
7389.775451	0.097559	0.177228	13652.801758
7389.776414	0.097522	0.177228	13746.715820
7389.777282	0.097496	0.177228	13831.342773
7389.778294	0.097617	0.177228	13930.131836
7389.779336	0.097540	0.177228	14031.768555
7390.762956	1.016173	0.170295	440.002899
7390.763845	1.475541	0.170295	1751.758667
7390.764710	1.473047	0.170295	3025.944336
7390.765839	1.433350	0.170295	4644.196289
7390.766737	1.397977	0.170295	5899.580078
7390.767605	1.365842	0.170295	7085.130859
7390.768663	1.328481	0.170295	8490.664062
7390.769634	1.295585	0.170295	9748.676758
7390.770518	1.266273	0.170295	10868.062500
7390.771562	1.233706	0.170295	12156.051758
7390.772616	0.832866	0.170295	13033.892578
7390.773504	0.115898	0.170295	13136.810547
7390.774440	0.097511	0.170295	13228.081055
7390.775501	0.097529	0.170295	13331.559570
7390.776429	0.097478	0.170295	13422.019531
7390.777288	0.097621	0.170295	13505.875977
7390.778332	0.097786	0.170295	13607.963867
7390.779356	0.097588	0.170295	13707.893555
7390.780233	0.097522	0.170295	13793.419922
7390.781196	0.097588	0.170295	13887.397461
7390.782244	0.097518	0.170295	13989.596680
7391.828515	1.081403	0.174227	558.003784
7391.829476	1.482631	0.174227	1982.811768
7391.830358	1.469429	0.174227	3278.847900
7391.831394	1.430431	0.174227	4760.774414
7391.832451	1.389928	0.174227	6229.928223
7391.833333	1.357072	0.174227	7426.865234
7391.834243	1.324559	0.174227	8632.213867
7391.835333	1.287891	0.174227	10036.014648
7391.836278	1.257378	0.174227	11224.236328
7391.837151	1.229989	0.174227	12298.016602
7391.838202	0.690513	0.174227	13023.745117
7391.839235	0.101027	0.174227	13128.105469
7391.840119	0.097482	0.174227	13214.279297
7391.841079	0.097650	0.174227	13308.023437
7391.842131	0.097548	0.174227	13410.643555
7391.843057	0.097570	0.174227	13500.993164
7391.843929	0.097555	0.174227	13586.061523
7391.845001	0.097636	0.174227	13690.726562
7391.845990	0.097515	0.174227	13787.168945
7391.846884	0.097581	0.174227	13874.406250
7391.847862	0.097767	0.174227	13970.022461
7392.834626	1.120704	0.160829	617.508057
7392.835674	1.484246	0.160829	2172.997559
7392.836568	1.464470	0.160829	3482.233887
7392.837493	1.428270	0.160829	4803.383789
7392.838592	1.386954	0.160829	6327.646484
7392.839545	1.352051	0.160829	7616.150879
7392.840418	1.321099	0.160829	8769.469727
7392.841490	1.285463	0.160829	10147.485352
7392.842515	1.252200	0.160829	11430.990234
7392.843404	1.224759	0.160829	12519.801758
7392.844384	0.597264	0.160829	13105.121094
7392.845431	0.099543	0.160829	13209.342773
7392.846345	0.097507	0.160829	13298.464844
7392.847207	0.097555	0.160829	13382.557617
7392.848281	0.097657	0.160829	13487.441406
7392.849281	0.097562	0.160829	13585.003906
7392.850155	0.097430	0.160829	13670.158203
7392.851167	0.097614	0.160829	13768.943359
7392.852215	0.097566	0.160829	13871.192383
7392.853102	0.097559	0.160829	13957.726562
7392.853958	0.097496	0.160829	14041.183594
7393.899001	1.058068	0.176475	505.756348
7393.899881	1.477482	0.176475	1805.940308
7393.900753	1.472937	0.176475	3090.341309
7393.901826	1.432848	0.176475	4627.787109
7393.902772	1.396567	0.176475	5948.939941
7393.903667	1.363425	0.176475	7169.205566
7393.904641	1.329283	0.176475	8463.927734
7393.905679	1.293959	0.176475	9807.056641
7393.906571	1.264666	0.176475	10935.138672
7393.907442	1.236929	0.176475	12012.503906
7393.908527	0.907775	0.176475	12997.439453
7393.909457	0.124940	0.176475	13113.633789
7393.910316	0.097390	0.176475	13197.291992
7393.911380	0.097599	0.176475	13301.136719
7393.912396	0.097522	0.176475	13400.218750
7393.913270	0.097478	0.176475	13485.414062
7393.914244	0.097511	0.176475	13580.389648
7393.915309	0.097584	0.176475	13684.316406
7393.916213	0.097504	0.176475	13772.459961
7393.917078	0.097588	0.176475	13856.873047
7393.918134	0.097643	0.176475	13959.983398
7394.902463	1.003348	0.168261	430.436432
7394.903345	1.473333	0.168261	1729.915649
7394.904213	1.475479	0.168261	3010.630859
7394.905326	1.434496	0.168261	4607.224609
7394.906236	1.398391	0.168261	5879.760742
7394.907168	1.364246	0.168261	7151.237793
7394.908033	1.332532	0.168261	8303.877930
7394.909075	1.297617	0.168261	9655.995117
7394.909964	1.268522	0.168261	10783.710937
7394.910841	1.240781	0.168261	11871.875977
7394.911851	1.073101	0.168261	12955.707031
7394.912773	0.181490	0.168261	13123.041016
7394.913647	0.097383	0.168261	13208.153320
7394.914628	0.097581	0.168261	13303.879883
7394.915638	0.097478	0.168261	13402.333008
7394.916528	0.097408	0.168261	13489.026367
7394.917390	0.097559	0.168261	13573.122070
7394.918478	0.097482	0.168261	13679.182617
7394.919411	0.097471	0.168261	13770.123047
7394.920286	0.097416	0.168261	13855.362305
7394.921239	0.097500	0.168261	13948.280273
7395.968523	1.062272	0.172769	537.509460
7395.969424	1.479734	0.172769	1870.749756
7395.970290	1.470989	0.172769	3144.625977
7395.971404	1.430131	0.172769	4737.791504
7395.972383	1.392638	0.172769	6101.184082
7395.973251	1.360898	0.172769	7282.443848
7395.974271	1.325090	0.172769	8634.036133
7395.975320	1.289821	0.172769	9987.057617
7395.976202	1.260377	0.172769	11098.709961
7395.977092	1.231721	0.172769	12194.941406
7395.978183	0.750784	0.172769	13014.046875
7395.979127	0.106106	0.172769	13114.210937
7395.979985	0.097548	0.172769	13197.907227
7395.981013	0.097760	0.172769	13298.404297
7395.982061	0.097636	0.172769	13400.726562
7395.982952	0.097533	0.172769	13487.628906
7395.983882	0.097632	0.172769	13578.426758
7395.984944	0.097603	0.172769	13682.081055
7395.985885	0.097654	0.172769	13773.973633
7395.986755	0.097562	0.172769	13858.852539
7395.987798	0.097610	0.172769	13960.659180
7396.972029	1.062773	0.163911	512.256836
7396.972912	1.477562	0.163911	1816.944336
7396.973892	1.470245	0.163911	3257.784668
7396.974942	1.429669	0.163911	4758.937500
7396.975875	1.394044	0.163911	6059.580566
7396.976741	1.361049	0.163911	7238.248535
7396.977821	1.323842	0.163911	8667.997070
7396.978843	1.289231	0.163911	9985.590820
7396.979721	1.260747	0.163911	11092.526367
7396.980706	1.230165	0.163911	12304.238281
7396.981779	0.682467	0.163911	13036.525391
7396.982664	0.104414	0.163911	13128.931641
7396.983527	0.097515	0.163911	13213.086914
7396.984606	0.097679	0.163911	13318.483398
7396.985598	0.097489	0.163911	13415.192383
7396.986493	0.097474	0.163911	13502.431641
7396.987473	0.097537	0.163911	13598.017578
7396.988524	0.097559	0.163911	13700.551758
7396.989411	0.097456	0.163911	13786.995117
7396.990282	0.097529	0.163911	13871.943359
7396.991402	0.097614	0.163911	13981.270508
7398.039001	1.017806	0.175041	449.870422
7398.039877	1.474321	0.175041	1741.375977
7398.040741	1.474698	0.175041	3015.515381
7398.041805	1.436133	0.175041	4543.560547
7398.042692	1.400929	0.175041	5786.184570
7398.043570	1.368303	0.175041	6987.554687
7398.044485	1.335033	0.175041	8209.109375
7398.045498	1.299983	0.175041	9525.992187
7398.046433	1.269979	0.175041	10713.422852
7398.047318	1.242144	0.175041	11812.719727
7398.048328	1.127424	0.175041	12951.417969
7398.049257	0.199647	0.175041	13136.890625
7398.050137	0.097434	0.175041	13222.632812
7398.051142	0.097529	0.175041	13320.649414
7398.052118	0.097438	0.175041	13415.749023
7398.053005	0.097562	0.175041	13502.287109
7398.053862	0.097588	0.175041	13585.919922
7398.054966	0.097500	0.175041	13693.559570
7398.055854	0.097551	0.175041	13780.185547
7398.056731	0.097544	0.175041	13865.731445
7398.057720	0.097650	0.175041	13962.307617
7399.041044	1.075312	0.164402	551.635315
7399.042033	1.483055	0.164402	2018.377197
7399.042926	1.468088	0.164402	3329.380127
7399.043927	1.429991	0.164402	4760.801758
7399.044982	1.390228	0.164402	6227.492676
7399.045873	1.356826	0.164402	7436.424805
7399.046760	1.324178	0.164402	8610.970703
7399.047864	1.288063	0.164402	10032.992187
7399.048821	1.257162	0.164402	11236.095703
7399.049742	1.228828	0.164402	12367.846680
7399.050620	0.848979	0.164402	13113.250977
7399.051670	0.109977	0.164402	13228.726562
7399.052543	0.097474	0.164402	13313.821289
7399.053412	0.097496	0.164402	13398.545898
7399.054293	0.097522	0.164402	13484.462891
7399.055333	0.097493	0.164402	13585.855469
7399.056225	0.097467	0.164402	13672.795898
7399.057099	0.097540	0.164402	13758.045898
7399.058089	0.097544	0.164402	13854.614258
7399.059026	0.097489	0.164402	13945.961914
7399.059944	0.097504	0.164402	14035.470703
7400.108517	1.046250	0.176866	478.136230
7400.109399	1.476357	0.176866	1780.283569
7400.110385	1.470018	0.176866	3229.721680
7400.111455	1.429563	0.176866	4759.354004
7400.112366	1.394227	0.176866	6029.495117
7400.113235	1.360986	0.176866	7212.192383
7400.114337	1.323387	0.176866	8670.565430
7400.115322	1.289989	0.176866	9941.205078
7400.116194	1.261465	0.176866	11041.202148
7400.117261	1.228601	0.176866	12352.119141
7400.118307	0.653888	0.176866	13036.085937
7400.119200	0.103206	0.176866	13128.248047
7400.120134	0.097482	0.176866	13219.295898
7400.121187	0.097438	0.176866	13321.897461
7400.122129	0.097584	0.176866	13413.822266
7400.122987	0.097577	0.176866	13497.542969
7400.124048	0.097614	0.176866	13601.111328
7400.125071	0.097559	0.176866	13700.914062
7400.125952	0.097570	0.176866	13786.873047
7400.126927	0.097522	0.176866	13881.957031
7400.127978	0.097603	0.176866	13984.537109
7401.107981	1.062913	0.169401	534.645020
7401.108884	1.479690	0.169401	1870.805054
7401.109748	1.470813	0.169401	3141.587402
7401.110849	1.430618	0.169401	4716.697266
7401.111835	1.392543	0.169401	6089.744141
7401.112735	1.359664	0.169401	7313.441895
7401.113761	1.323662	0.169401	8671.519531
7401.114811	1.288304	0.169401	10024.239258
7401.115695	1.259425	0.169401	11137.571289
7401.116577	1.230776	0.169401	12223.116211
7401.117689	0.695955	0.169401	12997.017578
7401.118631	0.103451	0.169401	13094.468750
7401.119490	0.097434	0.169401	13178.165039
7401.120532	0.097577	0.169401	13279.839844
7401.121577	0.097471	0.169401	13381.696289
7401.122445	0.097452	0.169401	13466.285156
7401.123368	0.097430	0.169401	13556.213867
7401.124434	0.097504	0.169401	13660.152344
7401.125370	0.097463	0.169401	13751.377930
7401.126232	0.097559	0.169401	13835.473633
7401.127269	0.097544	0.169401	13936.626953
7402.179014	1.001517	0.171568	431.653961
7402.179957	1.472626	0.171568	1820.339966
7402.181022	1.466096	0.171568	3381.732422
7402.181970	1.430061	0.171568	4737.430176
7402.182840	1.396121	0.171568	5952.055176
7402.183915	1.357130	0.171568	7410.970215
7402.184926	1.321355	0.171568	8746.860352
7402.185807	1.291007	0.171568	9884.237305
7402.186726	1.261945	0.171568	11043.964844
7402.187589	1.234321	0.171568	12109.183594
7402.188572	0.926407	0.171568	13019.841797
7402.189515	0.126533	0.171568	13139.162109
7402.190389	0.097368	0.171568	13224.261719
7402.191410	0.097463	0.171568	13323.771484
7402.192306	0.097383	0.171568	13411.026367
7402.193179	0.097460	0.171568	13496.108398
7402.194096	0.097482	0.171568	13585.499023
7402.195096	0.097430	0.171568	13682.929687
7402.195976	0.097419	0.171568	13768.659180
7402.196845	0.097471	0.171568	13853.361328
7402.197840	0.097467	0.171568	13950.340820
7403.177992	1.060789	0.163870	529.333496
7403.178876	1.478624	0.163870	1836.437256
7403.179816	1.470128	0.163870	3218.357910
7403.180895	1.429014	0.163870	4760.263672
7403.181851	1.392740	0.163870	6091.723633
7403.182720	1.359598	0.163870	7273.214844
7403.183792	1.322728	0.163870	8691.179687
7403.184797	1.288799	0.163870	9986.422852
7403.185698	1.259960	0.163870	11121.646484
7403.186677	1.229667	0.163870	12325.490234
7403.187729	0.675648	0.163870	13036.272461
7403.188636	0.103971	0.163870	13130.574219
7403.189492	0.097423	0.163870	13213.968750
7403.190579	0.097628	0.163870	13320.090820
7403.191575	0.097394	0.163870	13417.094727
7403.192451	0.097570	0.163870	13502.565430
7403.193454	0.097672	0.163870	13600.530273
7403.194517	0.097463	0.163870	13704.133789
7403.195406	0.097427	0.163870	13790.746094
7403.196270	0.097515	0.163870	13874.999023
7403.197356	0.097500	0.163870	13980.883789
7404.249530	0.988070	0.178171	415.977509
7404.250554	1.476009	0.178171	1927.411255
7404.251563	1.465979	0.178171	3406.583984
7404.252446	1.431804	0.178171	4670.867187
7404.253450	1.393216	0.178171	6069.656250
7404.254509	1.355134	0.178171	7504.743164
7404.255403	1.323036	0.178171	8687.537109
7404.256316	1.291285	0.178171	9866.480469
7404.257402	1.256744	0.178171	11231.304687
7404.258359	1.227517	0.178171	12406.039062
7404.259237	0.798622	0.178171	13107.228516
7404.260268	0.105762	0.178171	13216.268555
7404.261287	0.097456	0.178171	13315.576172
7404.262180	0.097522	0.178171	13402.663086
7404.263129	0.097595	0.178171	13495.281250
7404.264182	0.097562	0.178171	13598.014648
7404.265122	0.097559	0.178171	13689.719727
7404.265987	0.097581	0.178171	13774.126953
7404.267048	0.097614	0.178171	13877.695312
7404.268054	0.097529	0.178171	13975.809570
7404.268935	0.097467	0.178171	14061.677734
7405.245909	1.020348	0.170030	452.014099
7405.246776	1.473907	0.170030	1729.891846
7405.247813	1.469685	0.170030	3253.955322
7405.248718	1.434998	0.170030	4552.627930
7405.249598	1.400988	0.170030	5785.497070
7405.250546	1.366003	0.170030	7080.468262
7405.251543	1.330803	0.170030	8407.279297
7405.252476	1.299130	0.170030	9619.367187
7405.253347	1.270009	0.170030	10725.544922
7405.254400	1.237742	0.170030	12028.886719
7405.255283	1.104232	0.170030	13003.923828
7405.256149	0.201998	0.170030	13178.854492
7405.257055	0.097588	0.170030	13267.269531
7405.258096	0.097548	0.170030	13368.816406
7405.258985	0.097548	0.170030	13455.536133
7405.259844	0.097606	0.170030	13539.379883
7405.260935	0.097599	0.170030	13645.860352
7405.261836	0.097401	0.170030	13733.619141
7405.262709	0.097515	0.170030	13818.749023
7405.263705	0.097661	0.170030	13916.019531
7405.264694	0.097386	0.170030	14012.334961
7406.319032	0.994083	0.172096	420.497192
7406.320059	1.478610	0.172096	1939.029175
7406.321082	1.465063	0.172096	3437.789062
7406.321984	1.430416	0.172096	4728.024414
7406.322948	1.393839	0.172096	6071.685547
7406.324012	1.354559	0.172096	7512.936523
7406.324944	1.321721	0.172096	8744.780273
7406.325809	1.291538	0.172096	9861.960937
7406.326887	1.257334	0.172096	11217.367187
7406.327890	1.226166	0.172096	12447.210937
7406.328794	0.734418	0.172096	13111.125000
7406.329779	0.108179	0.172096	13217.680664
7406.330835	0.097537	0.172096	13320.679687
7406.331734	0.097511	0.172096	13408.341797
7406.332592	0.097592	0.172096	13492.075195
7406.333686	0.097646	0.172096	13598.900391
7406.334664	0.097496	0.172096	13694.251953
7406.335538	0.097562	0.172096	13779.521484
7406.336537	0.097723	0.172096	13877.147461
7406.337591	0.097584	0.172096	13980.000977
7406.338456	0.097544	0.172096	14064.376953
7407.316540	1.120518	0.164789	616.284668
7407.317583	1.483674	0.164789	2163.756836
7407.318483	1.463888	0.164789	3481.255859
7407.319421	1.428223	0.164789	4820.928711
7407.320492	1.386925	0.164789	6306.325195
7407.321442	1.352300	0.164789	7591.009766
7407.322313	1.321476	0.164789	8742.015625
7407.323386	1.285734	0.164789	10121.607422
7407.324403	1.252980	0.164789	11395.887695
7407.325290	1.225375	0.164789	12482.794922
7407.326280	0.623580	0.164789	13100.139648
7407.327327	0.099913	0.164789	13204.749023
7407.328238	0.097551	0.164789	13293.618164
7407.329093	0.097657	0.164789	13377.115234
7407.330179	0.097646	0.164789	13483.159180
7407.331174	0.097430	0.164789	13580.102539
7407.332042	0.097478	0.164789	13664.713867
7407.333021	0.097628	0.164789	13760.291992
7407.334071	0.097592	0.164789	13862.762695
7407.334964	0.097592	0.164789	13949.912109
7407.335829	0.097533	0.164789	14034.278320
7408.389043	1.005099	0.177897	423.146606
7408.390138	1.480715	0.177897	2044.529785
7408.391135	1.463331	0.177897	3503.471191
7408.392019	1.429281	0.177897	4766.955566
7408.393031	1.390737	0.177897	6174.381836
7408.394096	1.352197	0.177897	7614.471680
7408.395000	1.320352	0.177897	8808.069336
7408.395875	1.290176	0.177897	9936.972656
7408.396785	1.260564	0.177897	11084.085937
7408.397792	1.229048	0.177897	12321.737305
7408.398728	0.824330	0.177897	13093.310547
7408.399603	0.116862	0.177897	13195.564453
7408.400613	0.097526	0.177897	13294.065430
7408.401535	0.097423	0.177897	13383.889648
7408.402457	0.097412	0.177897	13473.703125
7408.403319	0.097544	0.177897	13557.786133
7408.404363	0.097507	0.177897	13659.583984
7408.405236	0.097383	0.177897	13744.599609
7408.406107	0.097441	0.177897	13829.470703
7408.407092	0.097493	0.177897	13925.500977
7408.408013	0.097518	0.177897	14015.315430
7409.386015	1.051300	0.170340	552.983826
7409.387080	1.482557	0.170340	2131.907471
7409.387992	1.463675	0.170340	3466.779541
7409.388856	1.429358	0.170340	4701.744629
7409.389945	1.389111	0.170340	6214.486816
7409.390952	1.351805	0.170340	7575.754883
7409.391825	1.321359	0.170340	8729.300781
7409.392820	1.287880	0.170340	10010.741211
7409.393909	1.253386	0.170340	11375.678711
7409.394799	1.224862	0.170340	12465.805664
7409.395676	0.689022	0.170340	13070.078125
7409.396785	0.100499	0.170340	13181.532227
7409.397749	0.097441	0.170340	13275.465820
7409.398614	0.097460	0.170340	13359.768555
7409.399658	0.097599	0.170340	13461.662109
7409.400703	0.097592	0.170340	13563.645508
7409.401589	0.097595	0.170340	13650.115234
7409.402515	0.097540	0.170340	13740.437500
7409.403592	0.097657	0.170340	13845.614258
7409.404541	0.097471	0.170340	13938.114258
7409.405404	0.097595	0.170340	14022.338867
7410.458552	0.989963	0.173744	419.744476
7410.459603	1.479137	0.173744	1974.317383
7410.460647	1.463478	0.173744	3502.188232
7410.461542	1.428801	0.173744	4780.965332
7410.462505	1.392191	0.173744	6121.645508
7410.463561	1.352911	0.173744	7550.319824
7410.464496	1.320487	0.173744	8784.975586
7410.465371	1.290275	0.173744	9913.965820
7410.466443	1.256140	0.173744	11260.547852
7410.467470	1.224207	0.173744	12517.807617
7410.468361	0.675751	0.173744	13119.901367
7410.469359	0.104894	0.173744	13224.584961
7410.470395	0.097496	0.173744	13325.590820
7410.471298	0.097434	0.173744	13413.574219
7410.472160	0.097438	0.173744	13497.565430
7410.473240	0.097599	0.173744	13602.972656
7410.474236	0.097408	0.173744	13699.991211
7410.475109	0.097423	0.173744	13785.041992
7410.476105	0.097515	0.173744	13882.166992
7410.477151	0.097452	0.173744	13984.102539
7410.478042	0.097386	0.173744	14070.874023
7411.453491	1.086460	0.169659	594.293579
7411.454422	1.481807	0.169659	1973.855591
7411.455341	1.467664	0.169659	3322.638428
7411.456217	1.433558	0.169659	4578.435547
7411.457265	1.394052	0.169659	6039.401367
7411.458160	1.360551	0.169659	7257.094238
7411.459037	1.330298	0.169659	8423.765625
7411.460012	1.297006	0.169659	9688.345703
7411.460972	1.265380	0.169659	10903.110352
7411.461856	1.237753	0.169659	11997.283203
7411.462791	1.033469	0.169659	12963.577148
7411.463844	0.142925	0.169659	13114.077148
7411.464726	0.097430	0.169659	13200.010742
7411.465582	0.097537	0.169659	13283.501953
7411.466612	0.097676	0.169659	13384.108398
7411.467576	0.097485	0.169659	13478.083984
7411.468452	0.097566	0.169659	13563.551758
7411.469334	0.097511	0.169659	13649.556641
7411.470438	0.097500	0.169659	13757.196289
7411.471330	0.097559	0.169659	13844.218750
7411.472194	0.097496	0.169659	13928.456055
7412.528570	1.000781	0.176898	423.330475
7412.529629	1.479866	0.176898	1990.508301
7412.530631	1.464086	0.176898	3457.522217
7412.531530	1.429709	0.176898	4742.831055
7412.532526	1.391715	0.176898	6128.979492
7412.533593	1.352871	0.176898	7572.493164
7412.534501	1.320722	0.176898	8771.708008
7412.535368	1.289729	0.176898	9889.903320
7412.536483	1.255287	0.176898	11289.547852
7412.537445	1.225664	0.176898	12468.636719
7412.538325	0.741365	0.176898	13121.038086
7412.539367	0.103660	0.176898	13229.051758
7412.540406	0.097438	0.176898	13330.290039
7412.541290	0.097482	0.176898	13416.463867
7412.542217	0.097489	0.176898	13506.835937
7412.543287	0.097522	0.176898	13611.184570
7412.544223	0.097452	0.176898	13702.400391
7412.545084	0.097412	0.176898	13786.272461
7412.546138	0.097603	0.176898	13889.145508
7412.547153	0.097485	0.176898	13988.092773
7412.548028	0.097302	0.176898	14073.232422
7413.523469	1.066183	0.170565	529.892883
7413.524365	1.478881	0.170565	1854.969971
7413.525235	1.470088	0.170565	3133.946289
7413.526346	1.429424	0.170565	4722.036133
7413.527320	1.392198	0.170565	6078.037598
7413.528189	1.360173	0.170565	7260.028320
7413.529240	1.323219	0.170565	8650.731445
7413.530291	1.287689	0.170565	10004.092773
7413.531187	1.258480	0.170565	11131.691406
7413.532124	1.229667	0.170565	12283.888672
7413.533207	0.664680	0.170565	13003.737305
7413.534149	0.102118	0.170565	13099.932617
7413.535007	0.097452	0.170565	13183.546875
7413.536069	0.097559	0.170565	13287.154297
7413.537072	0.097445	0.170565	13384.891602
7413.537958	0.097430	0.170565	13471.214844
7413.538927	0.097588	0.170565	13565.777344
7413.539972	0.097581	0.170565	13667.749023
7413.540887	0.097485	0.170565	13756.948242
7413.541746	0.097548	0.170565	13840.741211
7413.542817	0.097471	0.170565	13945.132812
7414.597090	1.041782	0.178598	472.969147
7414.597969	1.475010	0.178598	1769.502686
7414.598976	1.469502	0.178598	3249.291016
7414.600031	1.429581	0.178598	4757.499023
7414.600933	1.394553	0.178598	6015.385742
7414.601796	1.360983	0.178598	7189.914062
7414.602907	1.323644	0.178598	8660.482422
7414.603880	1.290740	0.178598	9916.372070
7414.604744	1.261956	0.178598	11006.702148
7414.605812	1.229308	0.178598	12319.603516
7414.606873	0.676154	0.178598	13037.002930
7414.607746	0.104685	0.178598	13128.392578
7414.608683	0.097419	0.178598	13219.674805
7414.609747	0.097489	0.178598	13323.403320
7414.610686	0.097434	0.178598	13414.893555
7414.611549	0.097408	0.178598	13498.957031
7414.612580	0.097540	0.178598	13599.521484
7414.613601	0.097452	0.178598	13699.020508
7414.614490	0.097493	0.178598	13785.691406
7414.615442	0.097478	0.178598	13878.490234
7414.616505	0.097496	0.178598	13982.128906
7415.593487	1.072236	0.169800	532.901428
7415.594365	1.477888	0.169800	1830.487305
7415.595230	1.472073	0.169800	3103.830078
7415.596282	1.432921	0.169800	4611.263184
7415.597233	1.396150	0.169800	5939.001953
7415.598111	1.363799	0.169800	7136.417480
7415.599046	1.330415	0.169800	8380.355469
7415.600103	1.294933	0.169800	9749.099609
7415.600998	1.265533	0.169800	10881.751953
7415.601864	1.237863	0.169800	11953.741211
7415.602919	0.970525	0.169800	12977.644531
7415.603873	0.135520	0.169800	13106.930664
7415.604752	0.097372	0.169800	13192.520508
7415.605680	0.097467	0.169800	13282.969727
7415.606745	0.097456	0.169800	13386.760742
7415.607621	0.097526	0.169800	13472.193359
7415.608515	0.097515	0.169800	13559.371094
7415.609613	0.097544	0.169800	13666.474609
7415.610553	0.097423	0.169800	13758.052734
7415.611410	0.097493	0.169800	13841.603516
7415.612440	0.097646	0.169800	13942.179687
7416.667073	0.996339	0.174715	430.418488
7416.667937	1.471864	0.174715	1702.108887
7416.668966	1.469839	0.174715	3214.573242
7416.670011	1.430735	0.174715	4709.691406
7416.670898	1.396150	0.174715	5948.076172
7416.671834	1.361785	0.174715	7222.706543
7416.672904	1.324241	0.174715	8639.644531
7416.673844	1.291992	0.174715	9854.117187
7416.674710	1.263314	0.174715	10948.147461
7416.675776	1.230692	0.174715	12260.065430
7416.676801	0.764960	0.174715	13044.149414
7416.677671	0.110782	0.174715	13140.530273
7416.678637	0.097467	0.174715	13234.683594
7416.679700	0.097489	0.174715	13338.314453
7416.680623	0.097482	0.174715	13428.290039
7416.681486	0.097496	0.174715	13512.429687
7416.682571	0.097603	0.174715	13618.328125
7416.683567	0.097500	0.174715	13715.438477
7416.684458	0.097482	0.174715	13802.294922
7416.685453	0.097548	0.174715	13899.354492
7416.686510	0.097515	0.174715	14002.427734
7417.663940	1.010980	0.168024	438.765381
7417.664810	1.472593	0.168024	1719.921143
7417.665946	1.463969	0.168024	3382.989258
7417.666911	1.427281	0.168024	4760.315918
7417.667786	1.395110	0.168024	5981.037109
7417.668848	1.356013	0.168024	7421.123047
7417.669888	1.320234	0.168024	8794.166992
7417.670787	1.289264	0.168024	9953.214844
7417.671732	1.259205	0.168024	11143.164062
7417.672785	1.225400	0.168024	12433.510742
7417.673728	0.684913	0.168024	13079.383789
7417.674588	0.106743	0.168024	13171.182617
7417.675646	0.097493	0.168024	13274.330078
7417.676669	0.097401	0.168024	13373.971680
7417.677544	0.097529	0.168024	13459.309570
7417.678521	0.097430	0.168024	13554.499023
7417.679570	0.097500	0.168024	13656.776367
7417.680486	0.097485	0.168024	13746.073242
7417.681341	0.097386	0.168024	13829.338867
7417.682388	0.097167	0.168024	13931.072266
7417.683391	0.097460	0.168024	14028.824219
7418.736172	1.090408	0.179617	588.820190
7418.737108	1.481744	0.179617	1975.732910
7418.738029	1.467576	0.179617	3327.370117
7418.738899	1.433188	0.179617	4574.244141
7418.739938	1.394227	0.179617	6022.846191
7418.740830	1.361503	0.179617	7237.306641
7418.741715	1.329928	0.179617	8414.292969
7418.742709	1.296746	0.179617	9703.257812
7418.743650	1.265570	0.179617	10894.159180
7418.744523	1.237709	0.179617	11974.678711
7418.745493	1.019908	0.179617	12963.990234
7418.746524	0.137531	0.179617	13105.784180
7418.747415	0.097397	0.179617	13192.565430
7418.748281	0.097511	0.179617	13277.009766
7418.749313	0.097588	0.179617	13377.720703
7418.750255	0.097515	0.179617	13469.579102
7418.751130	0.097617	0.179617	13554.994141
7418.752048	0.097526	0.179617	13644.522461
7418.753103	0.097595	0.179617	13747.485352
7418.753988	0.097529	0.179617	13833.798828
7418.754848	0.097566	0.179617	13917.705078
7419.733947	0.992410	0.171375	418.796875
7419.734894	1.472076	0.171375	1812.853271
7419.735964	1.465855	0.171375	3381.317627
7419.736892	1.429680	0.171375	4708.060547
7419.737817	1.394952	0.171375	5998.391602
7419.738691	1.362352	0.171375	7189.087402
7419.739739	1.325995	0.171375	8578.730469
7419.740633	1.295241	0.171375	9736.675781
7419.741510	1.266731	0.171375	10847.598633
7419.742486	1.236541	0.171375	12054.461914
7419.743455	1.007787	0.171375	13031.007812
7419.744379	0.148594	0.171375	13168.308594
7419.745239	0.097416	0.171375	13252.085937
7419.746264	0.097555	0.171375	13352.080078
7419.747162	0.097632	0.171375	13439.753906
7419.748032	0.097504	0.171375	13524.582031
7419.748910	0.097643	0.171375	13610.312500
7419.749961	0.097551	0.171375	13712.838867
7419.750857	0.097533	0.171375	13800.228516
7419.751731	0.097529	0.171375	13885.468750
7419.752736	0.097646	0.171375	13983.603516
7420.805175	1.110765	0.174098	600.924072
7420.806223	1.483220	0.174098	2155.338867
7420.807123	1.463822	0.174098	3472.778809
7420.808064	1.427791	0.174098	4816.329590
7420.809144	1.386500	0.174098	6313.750000
7420.810093	1.352014	0.174098	7596.811523
7420.810962	1.320670	0.174098	8744.473633
7420.812043	1.284976	0.174098	10133.532227
7420.813067	1.252009	0.174098	11415.589844
7420.813965	1.224397	0.174098	12515.098633
7420.814936	0.604058	0.174098	13101.638672
7420.815983	0.099437	0.174098	13205.749023
7420.816892	0.097511	0.174098	13294.386719
7420.817750	0.097599	0.174098	13378.126953
7420.818839	0.097599	0.174098	13484.412109
7420.819836	0.097485	0.174098	13581.605469
7420.820711	0.097507	0.174098	13666.924805
7420.821707	0.097522	0.174098	13764.056641
7420.822757	0.097548	0.174098	13866.481445
7420.823650	0.097419	0.174098	13953.476562
7420.824506	0.097485	0.174098	14036.923828
7421.803960	0.990187	0.167709	416.868591
7421.804946	1.473893	0.167709	1870.126953
7421.806015	1.464730	0.167709	3435.923340
7421.806915	1.429937	0.167709	4722.866211
7421.807779	1.395062	0.167709	5928.200195
7421.808891	1.355610	0.167709	7435.638672
7421.809854	1.321989	0.167709	8708.713867
7421.810725	1.292527	0.167709	9834.504883
7421.811746	1.259399	0.167709	11120.351562
7421.812793	1.227056	0.167709	12405.079102
7421.813690	0.773562	0.167709	13098.963867
7421.814612	0.112445	0.167709	13202.638672
7421.815677	0.097482	0.167709	13306.457031
7421.816622	0.097522	0.167709	13398.615234
7421.817481	0.097438	0.167709	13482.314453
7421.818532	0.097654	0.167709	13584.948242
7421.819548	0.097526	0.167709	13684.034180
7421.820426	0.097537	0.167709	13769.670898
7421.821386	0.097617	0.167709	13863.383789
7421.822438	0.097529	0.167709	13965.984375
7421.823371	0.097526	0.167709	14056.975586
7422.873031	1.009135	0.182086	437.964386
7422.873907	1.470366	0.182086	1726.005127
7422.874920	1.469594	0.182086	3214.703369
7422.875986	1.429369	0.182086	4738.410645
7422.876876	1.394073	0.182086	5979.135742
7422.877792	1.358218	0.182086	7223.263184
7422.878890	1.320879	0.182086	8673.587891
7422.879850	1.288736	0.182086	9910.775391
7422.880777	1.256726	0.182086	11075.760742
7422.881650	1.229989	0.182086	12149.541016
7422.882704	0.821451	0.182086	13015.350586
7422.883594	0.116733	0.182086	13119.243164
7422.884463	0.097474	0.182086	13203.948242
7422.885388	0.097690	0.182086	13294.311523
7422.886407	0.097467	0.182086	13393.630859
7422.887316	0.097456	0.182086	13482.218750
7422.888200	0.097203	0.182086	13568.146484
7422.889198	0.097167	0.182086	13665.119141
7422.890115	0.097280	0.182086	13754.325195
7422.891042	0.097504	0.182086	13844.710937
7422.891903	0.097493	0.182086	13928.652344
7423.872975	1.000627	0.172700	442.277313
7423.873838	1.472747	0.172700	1713.257690
7423.874853	1.469681	0.172700	3204.984375
7423.875906	1.430295	0.172700	4711.085449
7423.876798	1.394967	0.172700	5955.395996
7423.877731	1.361173	0.172700	7225.370605
7423.878814	1.322710	0.172700	8657.865234
7423.879753	1.291212	0.172700	9870.313477
7423.880624	1.262589	0.172700	10970.028320
7423.881680	1.229681	0.172700	12268.572266
7423.882705	0.743115	0.172700	13030.265625
7423.883594	0.108717	0.172700	13126.915039
7423.884507	0.097365	0.172700	13215.808594
7423.885365	0.097449	0.172700	13299.419922
7423.886367	0.097555	0.172700	13397.169922
7423.887291	0.097463	0.172700	13487.226562
7423.888152	0.097537	0.172700	13571.206055
7423.889189	0.097577	0.172700	13672.393555
7423.890068	0.097489	0.172700	13758.085937
7423.890929	0.097584	0.172700	13842.106445
7423.891786	0.097584	0.172700	13925.736328
7424.941597	1.068622	0.179001	542.859924
7424.942617	1.478207	0.179001	2050.630859
7424.943505	1.461779	0.179001	3348.690186
7424.944476	1.424839	0.179001	4732.208984
7424.945540	1.383592	0.179001	6204.351562
7424.946456	1.350055	0.179001	7441.001953
7424.947323	1.318781	0.179001	8584.384766
7424.948407	1.283258	0.179001	9975.436523
7424.949407	1.251119	0.179001	11226.555664
7424.950284	1.223811	0.179001	12299.837891
7424.951295	0.697592	0.179001	13005.103516
7424.952325	0.101188	0.179001	13109.327148
7424.953220	0.096775	0.179001	13195.940430
7424.954076	0.096896	0.179001	13278.882812
7424.955146	0.096965	0.179001	13382.635742
7424.956134	0.096833	0.179001	13478.307617
7424.957023	0.096837	0.179001	13564.395508
7424.958013	0.097002	0.179001	13660.427734
7424.959079	0.096830	0.179001	13763.648437
7424.959972	0.096881	0.179001	13850.163086
7424.960858	0.096907	0.179001	13936.022461
7425.945158	1.108865	0.168201	609.875610
7425.946120	1.478998	0.168201	2032.671509
7425.946994	1.463921	0.168201	3312.138184
7425.947891	1.428307	0.168201	4593.329102
7425.949009	1.387555	0.168201	6144.615723
7425.949885	1.355603	0.168201	7332.124023
7425.950751	1.326508	0.168201	8480.879883
7425.951780	1.288689	0.168201	9806.940430
7425.952767	1.256957	0.168201	11047.556641
7425.953640	1.229689	0.168201	12121.075195
7425.954675	0.832789	0.168201	12983.011719
7425.955718	0.106644	0.168201	13094.242187
7425.956612	0.096804	0.168201	13180.785156
7425.957536	0.096987	0.168201	13270.401367
7425.958611	0.096940	0.168201	13374.611328
7425.959557	0.097057	0.168201	13466.426758
7425.960422	0.096947	0.168201	13550.286133
7425.961476	0.097126	0.168201	13652.657227
7425.962483	0.096995	0.168201	13750.331055
7425.963371	0.097035	0.168201	13836.498047
7425.964334	0.097463	0.168201	13930.355469
7427.009983	0.994413	0.182469	423.619843
7427.010941	1.470667	0.182469	1832.518433
7427.012001	1.462939	0.182469	3383.234131
7427.012928	1.425084	0.182469	4704.287109
7427.013799	1.390349	0.182469	5915.281250
7427.014883	1.351633	0.182469	7380.451660
7427.015884	1.316052	0.182469	8697.820312
7427.016781	1.286169	0.182469	9851.514648
7427.017779	1.254111	0.182469	11103.117187
7427.018850	1.220995	0.182469	12410.802734
7427.019753	0.714243	0.182469	13055.764648
7427.020635	0.106937	0.182469	13150.083008
7427.021751	0.096951	0.182469	13258.280273
7427.022702	0.096841	0.182469	13350.375977
7427.023567	0.096801	0.182469	13434.108398
7427.024625	0.096870	0.182469	13536.596680
7427.025657	0.096837	0.182469	13636.532227
7427.026546	0.096764	0.182469	13722.555664
7427.027476	0.096859	0.182469	13812.634766
7427.028534	0.096870	0.182469	13915.123047
7427.029465	0.096793	0.182469	14005.237305
7428.014103	1.046100	0.170992	538.741455
7428.015160	1.478866	0.170992	2101.902832
7428.016079	1.460566	0.170992	3444.163330
7428.016940	1.426985	0.170992	4672.797363
7428.018015	1.386431	0.170992	6163.210449
7428.019028	1.349030	0.170992	7529.777344
7428.019904	1.318843	0.170992	8685.083984
7428.020887	1.285920	0.170992	9949.143555
7428.021943	1.251830	0.170992	11271.076172
7428.022849	1.223148	0.170992	12379.248047
7428.023718	0.766479	0.170992	13045.318359
7428.024800	0.102550	0.170992	13156.277344
7428.025793	0.096907	0.170992	13252.505859
7428.026685	0.097079	0.170992	13339.100586
7428.027689	0.097269	0.170992	13436.758789
7428.028729	0.097507	0.170992	13538.166016
7428.029625	0.097134	0.170992	13625.198242
7428.030486	0.097108	0.170992	13708.808594
7428.031602	0.097156	0.170992	13817.234375
7428.032568	0.097115	0.170992	13911.047852
7428.033435	0.097134	0.170992	13995.262695
7429.078579	1.103247	0.181861	594.650146
7429.079489	1.478071	0.181861	1939.695068
7429.080415	1.465228	0.181861	3296.496338
7429.081283	1.430255	0.181861	4537.958008
7429.082330	1.391169	0.181861	5994.512695
7429.083218	1.358174	0.181861	7200.571289
7429.084095	1.327877	0.181861	8365.119141
7429.085119	1.293307	0.181861	9689.465820
7429.086047	1.262219	0.181861	10860.805664
7429.086968	1.233951	0.181861	11997.275391
7429.087830	1.065062	0.181861	12915.359375
7429.088872	0.149224	0.181861	13070.850586
7429.089769	0.096918	0.181861	13157.786133
7429.090632	0.097101	0.181861	13241.583984
7429.091703	0.096987	0.181861	13345.457031
7429.092643	0.097119	0.181861	13436.749023
7429.093525	0.097104	0.181861	13522.395508
7429.094463	0.097104	0.181861	13613.479492
7429.095493	0.097079	0.181861	13713.470703
7429.096381	0.096998	0.181861	13799.605469
7429.097239	0.097094	0.181861	13882.912109
7430.085128	1.059089	0.172108	527.426453
7430.086023	1.478225	0.172108	1850.437988
7430.086948	1.470007	0.172108	3210.194824
7430.087813	1.435737	0.172108	4452.107422
7430.088874	1.396300	0.172108	5933.582031
7430.089757	1.363451	0.172108	7137.509277
7430.090628	1.332722	0.172108	8298.310547
7430.091615	1.299265	0.172108	9580.685547
7430.092539	1.268456	0.172108	10752.738281
7430.093457	1.239708	0.172108	11890.790039
7430.094341	1.130288	0.172108	12889.964844
7430.095384	0.181575	0.172108	13079.347656
7430.096277	0.097324	0.172108	13166.257812
7430.097149	0.097474	0.172108	13251.255859
7430.098100	0.097606	0.172108	13344.079102
7430.099084	0.097573	0.172108	13440.090820
7430.100006	0.097544	0.172108	13530.026367
7430.100869	0.097537	0.172108	13614.200195
7430.101901	0.097573	0.172108	13714.895508
7430.102775	0.097551	0.172108	13800.155273
7430.103632	0.097518	0.172108	13883.728516
7431.148071	1.087160	0.181244	562.061462
7431.149019	1.481184	0.181244	1966.224121
7431.149887	1.468949	0.181244	3241.271973
7431.150970	1.427944	0.181244	4787.735352
7431.151994	1.388811	0.181244	6209.877930
7431.152878	1.356797	0.181244	7409.286133
7431.153872	1.321816	0.181244	8723.171875
7431.154925	1.286316	0.181244	10077.662109
7431.155840	1.256459	0.181244	11227.322266
7431.156704	1.228781	0.181244	12288.988281
7431.157805	0.660132	0.181244	13015.792969
7431.158803	0.100730	0.181244	13116.321289
7431.159671	0.097489	0.181244	13200.941406
7431.160659	0.097617	0.181244	13297.386719
7431.161710	0.097430	0.181244	13399.786133
7431.162612	0.097573	0.181244	13487.796875
7431.163480	0.097551	0.181244	13572.471680
7431.164580	0.097529	0.181244	13679.753906
7431.165551	0.097456	0.181244	13774.383789
7431.166414	0.097628	0.181244	13858.636719
7431.167478	0.097705	0.181244	13962.594727
7432.154649	1.061287	0.169965	533.827148
7432.155585	1.475270	0.169965	1914.679687
7432.156455	1.465265	0.169965	3189.460205
7432.157523	1.425377	0.169965	4711.763184
7432.158558	1.389976	0.169965	6150.387695
7432.159439	1.357672	0.169965	7346.497070
7432.160420	1.319623	0.169965	8641.046875
7432.161479	1.285148	0.169965	10002.018555
7432.162400	1.252760	0.169965	11155.810547
7432.163261	1.228784	0.169965	12213.793945
7432.164329	0.711368	0.169965	12973.535156
7432.165332	0.101279	0.169965	13075.118164
7432.166220	0.097266	0.169965	13161.490234
7432.167205	0.097573	0.169965	13257.599609
7432.168256	0.097028	0.169965	13359.575195
7432.169168	0.096943	0.169965	13447.987305
7432.170028	0.097225	0.169965	13531.601562
7432.171143	0.097668	0.169965	13640.501953
7432.172113	0.097405	0.169965	13734.984375
7432.172973	0.097690	0.169965	13818.998047
7432.174083	0.097639	0.169965	13927.377930
7433.216438	0.993307	0.183714	418.182190
7433.217513	1.476284	0.183714	2005.187744
7433.218525	1.459072	0.183714	3481.768799
7433.219401	1.426073	0.183714	4731.008789
7433.220284	1.390789	0.183714	5959.075195
7433.221281	1.354530	0.183714	7309.541992
7433.222224	1.321996	0.183714	8556.183594
7433.223148	1.289941	0.183714	9748.089844
7433.224018	1.260454	0.183714	10844.684570
7433.225078	1.229330	0.183714	12147.774414
7433.225976	0.977831	0.183714	13025.866211
7433.226856	0.145038	0.183714	13153.500000
7433.227813	0.096841	0.183714	13246.176758
7433.228786	0.096859	0.183714	13340.420898
7433.229706	0.096844	0.183714	13429.517578
7433.230572	0.096943	0.183714	13513.470703
7433.231629	0.096844	0.183714	13615.834961
7433.232503	0.096779	0.183714	13700.418945
7433.233369	0.097130	0.183714	13784.533203
7433.234415	0.097181	0.183714	13886.184570
7433.235393	0.097028	0.183714	13981.077148
7434.224187	1.101907	0.176076	593.927734
7434.225189	1.482674	0.176076	2079.567383
7434.226062	1.466166	0.176076	3359.530273
7434.227066	1.427699	0.176076	4792.939941
7434.228122	1.387723	0.176076	6258.375977
7434.229034	1.353812	0.176076	7493.052734
7434.229910	1.323025	0.176076	8652.022461
7434.230794	1.292135	0.176076	9794.269531
7434.231860	1.258488	0.176076	11135.817383
7434.232762	1.230352	0.176076	12245.594727
7434.233650	0.934852	0.176076	13075.743164
7434.234665	0.126226	0.176076	13203.862305
7434.235591	0.097317	0.176076	13293.977539
7434.236516	0.097383	0.176076	13384.056641
7434.237379	0.097463	0.176076	13468.167969
7434.238408	0.097493	0.176076	13568.488281
7434.239292	0.097474	0.176076	13654.655273
7434.240155	0.097599	0.176076	13738.882812
7434.241133	0.097438	0.176076	13834.176758
7434.242079	0.097529	0.176076	13926.439453
7434.242955	0.097537	0.176076	14011.881836
7435.285944	0.991893	0.182892	419.570892
7435.286943	1.474684	0.182892	1892.780151
7435.288002	1.464368	0.182892	3443.545410
7435.288902	1.429299	0.182892	4729.915039
7435.289773	1.394388	0.182892	5944.427246
7435.290888	1.354904	0.182892	7455.144531
7435.291861	1.321157	0.182892	8740.630859
7435.292731	1.291392	0.182892	9864.141602
7435.293788	1.257349	0.182892	11193.159180
7435.294820	1.225558	0.182892	12457.934570
7435.295711	0.726965	0.182892	13105.661133
7435.296658	0.108706	0.182892	13208.605469
7435.297710	0.097562	0.182892	13311.241211
7435.298643	0.097482	0.182892	13402.191406
7435.299504	0.097592	0.182892	13486.217773
7435.300558	0.097617	0.182892	13589.106445
7435.301575	0.097504	0.182892	13688.267578
7435.302447	0.097537	0.182892	13773.319336
7435.303400	0.097705	0.182892	13866.432617
7435.304475	0.097518	0.182892	13971.264648
7435.305392	0.097467	0.182892	14060.641602
7436.294661	1.055691	0.172431	524.678345
7436.295540	1.477365	0.172431	1823.281738
7436.296446	1.469960	0.172431	3155.065186
7436.297553	1.429296	0.172431	4737.295410
7436.298514	1.392499	0.172431	6075.486816
7436.299378	1.360126	0.172431	7250.635742
7436.300432	1.323138	0.172431	8645.223633
7436.301462	1.288403	0.172431	9972.279297
7436.302352	1.259623	0.172431	11093.343750
7436.303332	1.229637	0.172431	12298.388672
7436.304378	0.697255	0.172431	13027.716797
7436.305287	0.104810	0.172431	13122.988281
7436.306146	0.097423	0.172431	13206.674805
7436.307224	0.097650	0.172431	13311.941406
7436.308232	0.097346	0.172431	13410.066406
7436.309100	0.097526	0.172431	13494.718750
7436.310085	0.097570	0.172431	13590.825195
7436.311151	0.097548	0.172431	13694.810547
7436.312050	0.097445	0.172431	13782.414062
7436.312921	0.097529	0.172431	13867.362305
7436.314017	0.097595	0.172431	13974.326172
7437.355459	0.996757	0.184620	427.608551
7437.356326	1.471633	0.184620	1703.514648
7437.357264	1.472307	0.184620	3084.538574
7437.358277	1.434800	0.184620	4537.990723
7437.359182	1.399596	0.184620	5804.625000
7437.360056	1.365377	0.184620	6997.964844
7437.361161	1.328412	0.184620	8465.859375
7437.362058	1.297357	0.184620	9629.588867
7437.362926	1.268657	0.184620	10730.783203
7437.363933	1.237130	0.184620	11976.573242
7437.364907	1.047751	0.184620	12997.083008
7437.365793	0.168948	0.184620	13146.770508
7437.366651	0.097463	0.184620	13230.394531
7437.367780	0.097617	0.184620	13340.604492
7437.368688	0.097584	0.184620	13429.210937
7437.369566	0.097537	0.184620	13514.847656
7437.370584	0.097661	0.184620	13614.266602
7437.371578	0.097537	0.184620	13711.217773
7437.372452	0.097559	0.184620	13796.484375
7437.373467	0.097588	0.184620	13895.536133
7437.374524	0.097533	0.184620	13998.628906
7438.363585	1.010266	0.177474	432.393890
7438.364630	1.480635	0.177474	1979.657349
7438.365523	1.468121	0.177474	3290.689941
7438.366388	1.434401	0.177474	4531.446289
7438.367484	1.393026	0.177474	6058.203125
7438.368423	1.358141	0.177474	7333.497070
7438.369303	1.327613	0.177474	8501.796875
7438.370304	1.294087	0.177474	9797.177734
7438.371316	1.260626	0.177474	11072.931641
7438.372194	1.233109	0.177474	12155.601562
7438.373055	0.993311	0.177474	13010.841797
7438.374157	0.124849	0.177474	13148.424805
7438.375069	0.097445	0.177474	13237.294922
7438.375933	0.097485	0.177474	13321.522461
7438.376908	0.097599	0.177474	13416.681641
7438.377933	0.097529	0.177474	13516.649414
7438.378821	0.097478	0.177474	13603.209961
7438.379780	0.097511	0.177474	13696.722656
7438.380832	0.097482	0.177474	13799.273437
7438.381760	0.097434	0.177474	13889.692383
7438.382623	0.097478	0.177474	13973.816406
7439.424487	1.041878	0.185321	489.682434
7439.425364	1.475259	0.185321	1783.484375
7439.426329	1.470201	0.185321	3202.228760
7439.427391	1.429874	0.185321	4720.755371
7439.428322	1.393803	0.185321	6018.385742
7439.429183	1.361693	0.185321	7190.803711
7439.430261	1.324471	0.185321	8618.583984
7439.431272	1.289579	0.185321	9922.348633
7439.432153	1.261425	0.185321	11033.664062
7439.433159	1.230681	0.185321	12271.729492
7439.434212	0.725955	0.185321	13036.160156
7439.435099	0.106692	0.185321	13130.795898
7439.435963	0.097511	0.185321	13215.044922
7439.437053	0.097577	0.185321	13321.403320
7439.438029	0.097456	0.185321	13416.520508
7439.438906	0.097471	0.185321	13502.001953
7439.439901	0.097606	0.185321	13599.120117
7439.440966	0.097504	0.185321	13702.961914
7439.441855	0.097332	0.185321	13789.489258
7439.442734	0.097386	0.185321	13875.091797
7439.443812	0.097625	0.185321	13980.331055
7440.434204	1.073826	0.175504	550.872620
7440.435089	1.478789	0.175504	1859.601074
7440.435981	1.469476	0.175504	3170.374023
7440.437091	1.428984	0.175504	4756.546875
7440.438043	1.392041	0.175504	6081.770020
7440.438905	1.360096	0.175504	7254.172852
7440.439964	1.322966	0.175504	8655.194336
7440.441010	1.287979	0.175504	10002.419922
7440.441893	1.259037	0.175504	11114.149414
7440.442843	1.229517	0.175504	12282.190430
7440.443914	0.684188	0.175504	13014.956055
7440.444825	0.103777	0.175504	13109.497070
7440.445692	0.097548	0.175504	13194.071289
7440.446740	0.097617	0.175504	13296.374023
7440.447762	0.097537	0.175504	13396.056641
7440.448651	0.097588	0.175504	13482.812500
7440.449623	0.097537	0.175504	13577.618164
7440.450671	0.097643	0.175504	13679.948242
7440.451592	0.097617	0.175504	13769.853516
7440.452456	0.097603	0.175504	13854.181641
7440.453543	0.097592	0.175504	13960.263672
7441.494469	1.010603	0.184395	438.601746
7441.495356	1.473629	0.184395	1745.710693
7441.496220	1.472505	0.184395	3017.954834
7441.497336	1.433079	0.184395	4617.270508
7441.498234	1.397575	0.184395	5872.292480
7441.499107	1.365718	0.184395	7064.563965
7441.500142	1.329529	0.184395	8440.625977
7441.501133	1.294896	0.184395	9723.868164
7441.502033	1.265215	0.184395	10862.561523
7441.502893	1.237386	0.184395	11926.713867
7441.503988	0.969939	0.184395	12988.796875
7441.504880	0.143049	0.184395	13116.396484
7441.505756	0.097361	0.184395	13201.684570
7441.506762	0.097573	0.184395	13299.842773
7441.507759	0.097405	0.184395	13396.955078
7441.508652	0.097463	0.184395	13483.990234
7441.509639	0.097617	0.184395	13580.338867
7441.510690	0.097474	0.184395	13682.784180
7441.511592	0.097507	0.184395	13770.735352
7441.512457	0.097489	0.184395	13855.063477
7441.513553	0.097548	0.184395	13961.975586
7442.502100	1.010046	0.178421	441.390259
7442.502969	1.472692	0.178421	1721.159302
7442.504019	1.468674	0.178421	3263.267334
7442.504902	1.434752	0.178421	4530.153320
7442.505773	1.401149	0.178421	5750.553711
7442.506672	1.366362	0.178421	6978.913086
7442.507709	1.329998	0.178421	8358.120117
7442.508610	1.299437	0.178421	9528.913086
7442.509481	1.269972	0.178421	10635.058594
7442.510595	1.236310	0.178421	12012.307617
7442.511510	1.078685	0.178421	12999.304687
7442.512378	0.186877	0.178421	13161.514648
7442.513443	0.097548	0.178421	13265.403320
7442.514413	0.097617	0.178421	13360.091797
7442.515288	0.097511	0.178421	13445.414062
7442.516146	0.097551	0.178421	13529.113281
7442.517256	0.097529	0.178421	13637.371094
7442.518139	0.097507	0.178421	13723.469727
7442.519006	0.097614	0.178421	13808.100586
7442.520019	0.097595	0.178421	13906.964844
7442.521012	0.097537	0.178421	14003.818359
7443.564029	1.062510	0.184564	512.129700
7443.564913	1.476434	0.184564	1817.297607
7443.565889	1.468912	0.184564	3250.956055
7443.566962	1.428186	0.184564	4783.399414
7443.567888	1.392048	0.184564	6072.436035
7443.568757	1.359642	0.184564	7253.965332
7443.569787	1.323688	0.184564	8617.363281
7443.570800	1.289403	0.184564	9923.528320
7443.571684	1.260820	0.184564	11038.093750
7443.572660	1.230549	0.184564	12239.109375
7443.573736	0.713536	0.184564	13006.875000
7443.574647	0.105374	0.184564	13102.870117
7443.575511	0.097485	0.184564	13187.097656
7443.576614	0.097606	0.184564	13294.756836
7443.577609	0.097603	0.184564	13391.871094
7443.578499	0.097496	0.184564	13478.642578
7443.579484	0.097661	0.184564	13574.838867
7443.580539	0.097577	0.184564	13677.782227
7443.581423	0.097526	0.184564	13763.995117
7443.582286	0.097537	0.184564	13848.168945
7443.583402	0.097639	0.184564	13957.133789
7444.572084	1.003715	0.176983	420.556396
7444.573191	1.480620	0.176983	2059.603027
7444.574169	1.462742	0.176983	3490.164307
7444.575054	1.428952	0.176983	4754.786133
7444.576080	1.390269	0.176983	6181.201660
7444.577136	1.351714	0.176983	7608.611328
7444.578027	1.319916	0.176983	8784.656250
7444.578938	1.288949	0.176983	9958.888672
7444.580024	1.254247	0.176983	11321.000977
7444.580975	1.224759	0.176983	12485.747070
7444.581845	0.739354	0.176983	13128.985352
7444.582899	0.103066	0.176983	13237.617187
7444.583931	0.097507	0.176983	13338.245117
7444.584805	0.097515	0.176983	13423.472656
7444.585758	0.097504	0.176983	13516.393555
7444.586823	0.097372	0.176983	13620.094727
7444.587746	0.097079	0.176983	13709.698242
7444.588602	0.097214	0.176983	13792.914062
7444.589651	0.097621	0.176983	13895.318359
7444.590663	0.097507	0.176983	13993.996094
7444.591553	0.097445	0.176983	14080.722656
7445.634500	1.009508	0.183533	438.126465
7445.635375	1.472769	0.183533	1726.798950
7445.636238	1.472406	0.183533	2997.485352
7445.637325	1.434016	0.183533	4556.260742
7445.638223	1.399380	0.183533	5812.903809
7445.639104	1.366373	0.183533	7016.678711
7445.640120	1.331492	0.183533	8369.474609
7445.641049	1.298749	0.183533	9576.012695
7445.641974	1.268968	0.183533	10749.808594
7445.642839	1.240309	0.183533	11822.675781
7445.643877	1.092579	0.183533	12956.773437
7445.644774	0.194330	0.183533	13131.086914
7445.645647	0.097441	0.183533	13216.153320
7445.646617	0.097544	0.183533	13310.770508
7445.647565	0.097507	0.183533	13403.207031
7445.648444	0.097518	0.183533	13488.925781
7445.649371	0.097606	0.183533	13579.406250
7445.650426	0.097471	0.183533	13682.238281
7445.651315	0.097555	0.183533	13768.964844
7445.652176	0.097511	0.183533	13852.921875
7445.653231	0.097643	0.183533	13955.934570
7446.640596	1.022776	0.179541	457.180756
7446.641473	1.474017	0.179541	1749.894043
7446.642351	1.473384	0.179541	3043.524902
7446.643357	1.436375	0.179541	4488.517578
7446.644279	1.399600	0.179541	5778.948242
7446.645205	1.365970	0.179541	7043.836914
7446.646075	1.333704	0.179541	8204.159180
7446.647129	1.298943	0.179541	9573.245117
7446.648035	1.268811	0.179541	10722.788086
7446.648918	1.241232	0.179541	11818.795898
7446.649913	1.112340	0.179541	12925.574219
7446.650869	0.196860	0.179541	13113.772461
7446.651796	0.097430	0.179541	13204.090820
7446.652656	0.097533	0.179541	13287.968750
7446.653694	0.097485	0.179541	13389.158203
7446.654574	0.097467	0.179541	13474.929687
7446.655440	0.097467	0.179541	13559.335937
7446.656469	0.097526	0.179541	13659.689453
7446.657425	0.097394	0.179541	13752.797852
7446.658300	0.097405	0.179541	13838.027344
7446.659223	0.097570	0.179541	13928.083984
7447.703068	1.077378	0.183597	547.307983
7447.704007	1.480320	0.183597	1937.328369
7447.704870	1.469484	0.183597	3205.492676
7447.705923	1.430054	0.183597	4711.339355
7447.706948	1.389419	0.183597	6135.493652
7447.707831	1.354797	0.183597	7331.779785
7447.708795	1.322721	0.183597	8606.882812
7447.709852	1.288531	0.183597	9968.860352
7447.710781	1.258279	0.183597	11137.800781
7447.711646	1.230637	0.183597	12202.301758
7447.712742	0.732876	0.183597	13005.534180
7447.713743	0.102748	0.183597	13108.384766
7447.714611	0.097383	0.183597	13192.913086
7447.715584	0.097493	0.183597	13287.773437
7447.716640	0.097471	0.183597	13390.702148
7447.717550	0.097522	0.183597	13479.447266
7447.718414	0.097493	0.183597	13563.680664
7447.719493	0.097646	0.183597	13669.041016
7447.720494	0.097452	0.183597	13766.590820
7447.721388	0.097463	0.183597	13853.722656
7447.722369	0.097614	0.183597	13949.481445
7448.711608	1.000847	0.180008	423.358368
7448.712709	1.479694	0.180008	2052.500977
7448.713712	1.462145	0.180008	3519.032227
7448.714590	1.428384	0.180008	4773.153320
7448.715598	1.390203	0.180008	6174.477539
7448.716650	1.351736	0.180008	7596.503906
7448.717549	1.320000	0.180008	8783.183594
7448.718411	1.288905	0.180008	9894.219727
7448.719533	1.254895	0.180008	11302.211914
7448.720499	1.224928	0.180008	12485.492187
7448.721363	0.741947	0.180008	13126.534180
7448.722412	0.103180	0.180008	13234.769531
7448.723481	0.097471	0.180008	13338.965820
7448.724356	0.097482	0.180008	13424.262695
7448.725281	0.097551	0.180008	13514.498047
7448.726359	0.097467	0.180008	13619.567383
7448.727295	0.097449	0.180008	13710.779297
7448.728167	0.097452	0.180008	13795.757812
7448.729223	0.097588	0.180008	13898.810547
7448.730235	0.097456	0.180008	13997.436523
7448.731123	0.097471	0.180008	14083.990234
7449.773545	1.046195	0.185434	477.064941
7449.774435	1.475647	0.185434	1790.390747
7449.775316	1.472494	0.185434	3087.657715
7449.776316	1.435474	0.185434	4523.131348
7449.777271	1.398080	0.185434	5858.297852
7449.778154	1.365652	0.185434	7064.168457
7449.779138	1.331411	0.185434	8374.277344
7449.780155	1.295991	0.185434	9692.300781
7449.781043	1.266742	0.185434	10817.167969
7449.781911	1.238661	0.185434	11892.326172
7449.782988	1.000748	0.185434	12970.131836
7449.783915	0.150040	0.185434	13109.218750
7449.784789	0.097430	0.185434	13194.373047
7449.785761	0.097518	0.185434	13289.161133
7449.786795	0.097456	0.185434	13389.930664
7449.787670	0.097456	0.185434	13475.205078
7449.788530	0.097434	0.185434	13558.998047
7449.789579	0.097581	0.185434	13661.360352
7449.790520	0.097397	0.185434	13753.011719
7449.791385	0.097551	0.185434	13837.393555
7449.792446	0.097584	0.185434	13940.930664
7450.780617	1.012207	0.180024	442.334473
7450.781497	1.472952	0.180024	1738.531982
7450.782359	1.472644	0.180024	3007.951172
7450.783428	1.434763	0.180024	4541.712891
7450.784304	1.400138	0.180024	5768.233398
7450.785184	1.367179	0.180024	6971.350586
7450.786167	1.333206	0.180024	8281.891602
7450.787110	1.300173	0.180024	9507.955078
7450.787986	1.271382	0.180024	10621.685547
7450.788947	1.241598	0.180024	11814.861328
7450.789989	1.107814	0.180024	12969.203125
7450.790884	0.195227	0.180024	13143.931641
7450.791744	0.097504	0.180024	13227.785156
7450.792812	0.097679	0.180024	13332.106445
7450.793745	0.097657	0.180024	13423.220703
7450.794619	0.097603	0.180024	13508.525391
7450.795567	0.097559	0.180024	13601.010742
7450.796606	0.097555	0.180024	13702.370117
7450.797493	0.097489	0.180024	13788.842773
7450.798350	0.097540	0.180024	13872.434570
7450.799377	0.097694	0.180024	13972.766602
7451.842093	1.101552	0.183919	581.619202
7451.843134	1.482469	0.183919	2124.869873
7451.844027	1.464335	0.183919	3432.520752
7451.844954	1.428589	0.183919	4756.822754
7451.846035	1.387181	0.183919	6256.365723
7451.846989	1.352681	0.183919	7546.823242
7451.847859	1.321256	0.183919	8696.316406
7451.848915	1.286320	0.183919	10054.669922
7451.849933	1.253683	0.183919	11330.918945
7451.850822	1.226125	0.183919	12420.944336
7451.851821	0.673103	0.183919	13093.374023
7451.852884	0.100657	0.183919	13200.372070
7451.853791	0.097375	0.183919	13288.691406
7451.854645	0.097533	0.183919	13371.984375
7451.855719	0.097595	0.183919	13476.801758
7451.856721	0.097570	0.183919	13574.566406
7451.857598	0.097456	0.183919	13660.035156
7451.858605	0.097603	0.183919	13758.321289
7451.859652	0.097540	0.183919	13860.446289
7451.860536	0.097460	0.183919	13946.600586
7451.861406	0.097485	0.183919	14031.413086
7452.849675	1.058793	0.181817	528.337585
7452.850555	1.477116	0.181817	1828.199219
7452.851480	1.469571	0.181817	3187.552734
7452.852550	1.429321	0.181817	4716.926758
7452.853501	1.392990	0.181817	6041.659668
7452.854372	1.360862	0.181817	7226.970215
7452.855424	1.323896	0.181817	8619.708984
7452.856439	1.289279	0.181817	9928.327148
7452.857336	1.260179	0.181817	11058.708008
7452.858315	1.230458	0.181817	12263.326172
7452.859377	0.715104	0.181817	13022.766602
7452.860295	0.105341	0.181817	13119.469727
7452.861151	0.097416	0.181817	13202.857422
7452.862210	0.097500	0.181817	13306.110352
7452.863219	0.097397	0.181817	13404.384766
7452.864108	0.097515	0.181817	13491.075195
7452.865090	0.097577	0.181817	13586.895508
7452.866148	0.097584	0.181817	13690.139648
7452.867058	0.097581	0.181817	13778.937500
7452.867919	0.097474	0.181817	13862.863281
7452.869019	0.097526	0.181817	13970.141602
7453.910972	0.998650	0.185297	424.426208
7453.912026	1.478859	0.185297	1983.143066
7453.913051	1.462881	0.185297	3482.595947
7453.913944	1.428516	0.185297	4758.260254
7453.914909	1.391869	0.185297	6101.414062
7453.915970	1.353043	0.185297	7536.993164
7453.916896	1.320278	0.185297	8759.570312
7453.917764	1.290582	0.185297	9879.795898
7453.918854	1.255657	0.185297	11248.461914
7453.919852	1.224734	0.185297	12470.746094
7453.920747	0.716034	0.185297	13111.596680
7453.921766	0.105645	0.185297	13219.248047
7453.922818	0.097548	0.185297	13321.868164
7453.923710	0.097489	0.185297	13408.828125
7453.924579	0.097504	0.185297	13493.558594
7453.925439	0.097529	0.185297	13577.433594
7453.926502	0.097430	0.185297	13681.001953
7453.927377	0.097463	0.185297	13766.282227
7453.928249	0.097474	0.185297	13851.280273
7453.929232	0.097573	0.185297	13947.194336
7453.930160	0.097460	0.185297	14037.636719
7454.920134	1.005656	0.179593	436.454498
7454.920995	1.471388	0.179593	1703.319458
7454.922070	1.467034	0.179593	3280.380859
7454.923066	1.429047	0.179593	4703.711426
7454.923965	1.395103	0.179593	5957.908691
7454.924958	1.358273	0.179593	7306.673340
7454.926027	1.320831	0.179593	8718.641602
7454.926931	1.290450	0.179593	9885.208984
7454.927796	1.260795	0.179593	10975.796875
7454.928926	1.227023	0.179593	12362.333008
7454.929905	0.710061	0.179593	13057.482422
7454.930818	0.105099	0.179593	13153.437500
7454.931693	0.097408	0.179593	13238.669922
7454.932744	0.097562	0.179593	13341.208008
7454.933644	0.097529	0.179593	13428.984375
7454.934524	0.097548	0.179593	13514.826172
7454.935381	0.097614	0.179593	13598.480469
7454.936432	0.097522	0.179593	13700.975586
7454.937320	0.097485	0.179593	13787.542969
7454.938185	0.097529	0.179593	13871.906250
7454.939191	0.097518	0.179593	13970.009766
7455.980494	1.015386	0.184979	444.738953
7455.981480	1.474643	0.184979	1898.737305
7455.982534	1.462885	0.184979	3440.617676
7455.983435	1.428003	0.184979	4727.248047
7455.984298	1.394114	0.184979	5930.368164
7455.985406	1.354534	0.184979	7431.191406
7455.986367	1.319930	0.184979	8699.644531
7455.987245	1.290916	0.184979	9833.068359
7455.988271	1.257788	0.184979	11123.558594
7455.989324	1.226224	0.184979	12414.772461
7455.990211	0.770801	0.184979	13098.472656
7455.991100	0.111885	0.184979	13197.938477
7455.992186	0.097463	0.184979	13303.784180
7455.993151	0.097463	0.184979	13397.835937
7455.994015	0.097515	0.184979	13482.088867
7455.995043	0.097610	0.184979	13582.431641
7455.996077	0.097544	0.184979	13683.291992
7455.996966	0.097540	0.184979	13770.004883
7455.997916	0.097566	0.184979	13862.692383
7455.998979	0.097683	0.184979	13966.529297
7455.999923	0.097456	0.184979	14058.527344
7456.988712	1.096886	0.180310	582.446411
7456.989685	1.481539	0.180310	2023.984253
7456.990556	1.467378	0.180310	3302.070312
7456.991598	1.427604	0.180310	4789.633301
7456.992639	1.387998	0.180310	6234.539062
7456.993531	1.355295	0.180310	7443.462402
7456.994478	1.322563	0.180310	8695.929687
7456.995550	1.285646	0.180310	10074.141602
7456.996495	1.255313	0.180310	11260.412109
7456.997362	1.227843	0.180310	12324.952148
7456.998429	0.654012	0.180310	13022.783203
7456.999433	0.100433	0.180310	13123.618164
7457.000324	0.097463	0.180310	13210.458008
7457.001292	0.097540	0.180310	13304.876953
7457.002335	0.097489	0.180310	13406.557617
7457.003245	0.097482	0.180310	13495.265625
7457.004105	0.097599	0.180310	13579.200195
7457.005182	0.097588	0.180310	13684.302734
7457.006187	0.097445	0.180310	13782.235352
7457.007058	0.097504	0.180310	13867.161133
7457.008054	0.097581	0.180310	13964.351562
7458.049484	1.018535	0.185712	446.118378
7458.050364	1.472988	0.185712	1742.348022
7458.051394	1.468242	0.185712	3254.637451
7458.052449	1.428878	0.185712	4762.104004
7458.053334	1.393960	0.185712	5995.758789
7458.054232	1.360400	0.185712	7217.398437
7458.055316	1.322816	0.185712	8651.331055
7458.056276	1.290260	0.185712	9889.980469
7458.057149	1.262208	0.185712	10991.888672
7458.058197	1.229561	0.185712	12280.467773
7458.059226	0.751681	0.185712	13053.947266
7458.060105	0.110585	0.185712	13151.151367
7458.061015	0.097361	0.185712	13239.750000
7458.061895	0.097570	0.185712	13325.611328
7458.062859	0.097496	0.185712	13419.597656
7458.063783	0.097529	0.185712	13509.714844
7458.064660	0.097584	0.185712	13595.295898
7458.065642	0.097548	0.185712	13691.087891
7458.066564	0.097606	0.185712	13781.081055
7458.067489	0.097599	0.185712	13871.360352
7458.068349	0.097668	0.185712	13955.355469
7459.059185	1.050970	0.180668	502.363861
7459.060059	1.475486	0.180668	1791.938477
7459.061022	1.469729	0.180668	3207.287598
7459.062076	1.429666	0.180668	4714.155273
7459.063010	1.393553	0.180668	6015.734375
7459.063877	1.361378	0.180668	7196.049316
7459.064950	1.324003	0.180668	8616.704102
7459.065962	1.289806	0.180668	9921.987305
7459.066843	1.261022	0.180668	11032.947266
7459.067850	1.230385	0.180668	12271.944336
7459.068926	0.704469	0.180668	13029.953125
7459.069815	0.105601	0.180668	13123.832031
7459.070717	0.097361	0.180668	13211.651367
7459.071599	0.097573	0.180668	13297.710937
7459.072631	0.097515	0.180668	13398.345703
7459.073521	0.097460	0.180668	13485.084961
7459.074394	0.097452	0.180668	13570.161133
7459.075366	0.097606	0.180668	13665.034180
7459.076326	0.097496	0.180668	13758.630859
7459.077248	0.097460	0.180668	13848.488281
7459.078108	0.097496	0.180668	13932.334961
7460.119490	1.000312	0.185377	431.134674
7460.120355	1.471421	0.185377	1703.913696
7460.121419	1.467891	0.185377	3265.749268
7460.122431	1.429446	0.185377	4712.348633
7460.123319	1.395026	0.185377	5951.131348
7460.124306	1.359617	0.185377	7293.073242
7460.125351	1.322241	0.185377	8674.815430
7460.126264	1.291406	0.185377	9853.869141
7460.127130	1.262124	0.185377	10946.868164
7460.128202	1.229604	0.185377	12265.003906
7460.129208	0.771248	0.185377	13040.878906
7460.130081	0.112079	0.185377	13138.723633
7460.131087	0.097478	0.185377	13236.786133
7460.132147	0.097467	0.185377	13340.101562
7460.133026	0.097500	0.185377	13425.803711
7460.133895	0.097467	0.185377	13510.502930
7460.134982	0.097614	0.185377	13616.608398
7460.135953	0.097518	0.185377	13711.298828
7460.136832	0.097430	0.185377	13796.940430
7460.137828	0.097606	0.185377	13894.156250
7460.138884	0.097507	0.185377	13997.124023
7461.127766	1.122861	0.178360	653.505310
7461.128820	1.482623	0.178360	2216.190186
7461.129704	1.462214	0.178360	3508.787598
7461.130592	1.426692	0.178360	4775.689941
7461.131688	1.385658	0.178360	6294.371094
7461.132650	1.351106	0.178360	7594.134766
7461.133521	1.320428	0.178360	8744.227539
7461.134565	1.285375	0.178360	10086.159180
7461.135593	1.252375	0.178360	11373.601562
7461.136486	1.224888	0.178360	12467.425781
7461.137433	0.670203	0.178360	13102.107422
7461.138499	0.100078	0.178360	13208.791016
7461.139430	0.097423	0.178360	13299.492187
7461.140291	0.097592	0.178360	13383.518555
7461.141363	0.097584	0.178360	13488.128906
7461.142359	0.097555	0.178360	13585.293945
7461.143249	0.097500	0.178360	13672.069336
7461.144210	0.097639	0.178360	13765.900391
7461.145243	0.097467	0.178360	13866.583984
7461.146163	0.097500	0.178360	13956.284180
7461.147025	0.097559	0.178360	14040.379883
7462.188063	1.078744	0.185563	552.316895
7462.189064	1.481993	0.185563	2035.792358
7462.189944	1.466536	0.185563	3326.343750
7462.190957	1.428193	0.185563	4773.103516
7462.192028	1.387665	0.185563	6259.292480
7462.192907	1.355061	0.185563	7450.391113
7462.193802	1.321831	0.185563	8633.429687
7462.194902	1.286550	0.185563	10048.634766
7462.195853	1.255983	0.185563	11243.074219
7462.196713	1.228531	0.185563	12299.611328
7462.197740	0.700349	0.185563	13018.870117
7462.198782	0.101400	0.185563	13124.529297
7462.199672	0.097427	0.185563	13211.239258
7462.200607	0.097518	0.185563	13302.418945
7462.201667	0.097603	0.185563	13405.877930
7462.202612	0.097518	0.185563	13498.033203
7462.203479	0.097570	0.185563	13582.625977
7462.204539	0.097646	0.185563	13686.130859
7462.205558	0.097522	0.185563	13785.505859
7462.206449	0.097515	0.185563	13872.391602
7462.207413	0.097588	0.185563	13966.466797
7463.198223	1.066677	0.178364	540.805359
7463.199171	1.480188	0.178364	1944.023437
7463.200043	1.468531	0.178364	3224.583008
7463.201121	1.428051	0.178364	4764.021484
7463.202131	1.389382	0.178364	6167.297852
7463.203026	1.356731	0.178364	7381.572266
7463.204002	1.322776	0.178364	8672.601562
7463.205054	1.287140	0.178364	10026.672852
7463.205969	1.257169	0.178364	11176.982422
7463.206836	1.229528	0.178364	12242.982422
7463.207931	0.690608	0.178364	12999.198242
7463.208933	0.101400	0.178364	13100.800781
7463.209813	0.097533	0.178364	13186.629883
7463.210833	0.097632	0.178364	13286.214844
7463.211897	0.097555	0.178364	13390.013672
7463.212776	0.097654	0.178364	13475.851562
7463.213632	0.097504	0.178364	13559.314453
7463.214742	0.097592	0.178364	13667.640625
7463.215708	0.097544	0.178364	13761.868164
7463.216563	0.097507	0.178364	13845.237305
7463.217631	0.097533	0.178364	13949.402344
7464.256959	0.996632	0.187081	425.561890
7464.258008	1.478199	0.187081	1976.192993
7464.258966	1.465510	0.187081	3380.151855
7464.259845	1.431735	0.187081	4638.646484
7464.260745	1.396326	0.187081	5895.339844
7464.261836	1.357632	0.187081	7376.516113
7464.262726	1.325976	0.187081	8556.634766
7464.263586	1.296248	0.187081	9671.408203
7464.264608	1.262578	0.187081	10961.762695
7464.265600	1.232014	0.187081	12183.920898
7464.266470	1.003813	0.187081	13057.238281
7464.267489	0.130510	0.187081	13190.228516
7464.268538	0.097430	0.187081	13292.432617
7464.269429	0.097555	0.187081	13379.354492
7464.270360	0.097614	0.187081	13470.232422
7464.271429	0.097606	0.187081	13574.573242
7464.272367	0.097540	0.187081	13666.066406
7464.273232	0.097584	0.187081	13750.476562
7464.274276	0.097628	0.187081	13852.400391
7464.275292	0.097515	0.187081	13951.475586
7464.276185	0.097449	0.187081	14038.497070
7465.267126	0.990033	0.175778	418.783936
7465.268131	1.474475	0.175778	1900.631470
7465.269072	1.467155	0.175778	3281.224121
7465.270002	1.432064	0.175778	4613.043945
7465.270874	1.397750	0.175778	5831.882324
7465.271905	1.360873	0.175778	7234.942383
7465.272793	1.328906	0.175778	8415.011719
7465.273660	1.298687	0.175778	9540.972656
7465.274741	1.264369	0.175778	10907.755859
7465.275675	1.234717	0.175778	12060.981445
7465.276552	1.081816	0.175778	13009.734375
7465.277538	0.181044	0.175778	13188.243164
7465.278566	0.097419	0.175778	13288.390625
7465.279441	0.097500	0.175778	13373.703125
7465.280308	0.097471	0.175778	13458.209961
7465.281350	0.097581	0.175778	13559.888672
7465.282283	0.097467	0.175778	13650.825195
7465.283159	0.097485	0.175778	13736.222656
7465.284083	0.097584	0.175778	13826.390625
7465.285143	0.097551	0.175778	13929.794922
7465.286036	0.097463	0.175778	14016.830078
7466.325957	1.005557	0.187134	433.394897
7466.326904	1.472124	0.187134	1827.496338
7466.327968	1.465027	0.187134	3386.284912
7466.328896	1.429537	0.187134	4712.895508
7466.329757	1.395703	0.187134	5914.595703
7466.330829	1.356925	0.187134	7369.219238
7466.331853	1.321388	0.187134	8722.320312
7466.332740	1.290721	0.187134	9867.190430
7466.333730	1.259641	0.187134	11114.235352
7466.334788	1.226268	0.187134	12411.626953
7466.335701	0.746671	0.187134	13093.337891
7466.336559	0.110314	0.187134	13187.987305
7466.337642	0.097526	0.187134	13293.607422
7466.338626	0.097496	0.187134	13389.543945
7466.339511	0.097500	0.187134	13475.831055
7466.340514	0.097636	0.187134	13573.759766
7466.341561	0.097617	0.187134	13675.964844
7466.342452	0.097438	0.187134	13762.782227
7466.343316	0.097456	0.187134	13846.984375
7466.344436	0.097540	0.187134	13956.229492
7466.345399	0.097434	0.187134	14050.058594
7467.337234	1.070709	0.178042	534.283936
7467.338266	1.481715	0.178042	2063.414062
7467.339161	1.465327	0.178042	3374.881836
7467.340114	1.429270	0.178042	4736.976074
7467.341172	1.388225	0.178042	6205.718262
7467.342110	1.354475	0.178042	7476.215820
7467.342988	1.323237	0.178042	8638.018555
7467.344052	1.287176	0.178042	10007.574219
7467.345075	1.254064	0.178042	11290.481445
7467.345974	1.226624	0.178042	12393.215820
7467.346950	0.687957	0.178042	13064.661133
7467.348001	0.101107	0.178042	13170.924805
7467.348921	0.097463	0.178042	13260.590820
7467.349782	0.097427	0.178042	13344.475586
7467.350869	0.097584	0.178042	13450.549805
7467.351866	0.097518	0.178042	13547.775391
7467.352755	0.097482	0.178042	13634.436523
7467.353754	0.097584	0.178042	13731.922852
7467.354793	0.097526	0.178042	13833.251953
7467.355685	0.097485	0.178042	13920.208984
7467.356545	0.097555	0.178042	14004.106445
7468.396507	1.031799	0.183150	464.309692
7468.397372	1.473029	0.183150	1738.479370
7468.398422	1.467656	0.183150	3279.518555
7468.399305	1.433778	0.183150	4545.544434
7468.400183	1.399805	0.183150	5774.573242
7468.401174	1.363575	0.183150	7125.876465
7468.402118	1.329814	0.183150	8381.221680
7468.403009	1.299639	0.183150	9539.199219
7468.403985	1.267775	0.183150	10776.546875
7468.405006	1.235676	0.183150	12038.171875
7468.405899	1.083929	0.183150	13006.121094
7468.406766	0.189338	0.183150	13170.277344
7468.407858	0.097496	0.183150	13276.743164
7468.408768	0.097628	0.183150	13365.584961
7468.409638	0.097555	0.183150	13450.458008
7468.410631	0.097665	0.183150	13547.439453
7468.411634	0.097573	0.183150	13645.305664
7468.412511	0.097562	0.183150	13730.868164
7468.413366	0.097599	0.183150	13814.315430
7468.414423	0.097665	0.183150	13917.546875
7468.415362	0.097493	0.183150	14009.092773
7469.406143	0.995391	0.175625	426.027191
7469.407004	1.470813	0.175625	1692.397217
7469.408036	1.469000	0.175625	3208.405273
7469.408944	1.434569	0.175625	4510.994141
7469.409827	1.400651	0.175625	5747.768555
7469.410762	1.365916	0.175625	7024.899414
7469.411752	1.330950	0.175625	8342.539062
7469.412668	1.300133	0.175625	9533.460937
7469.413546	1.271158	0.175625	10649.538086
7469.414638	1.237163	0.175625	12000.520508
7469.415536	1.103895	0.175625	12991.818359
7469.416414	0.198750	0.175625	13166.321289
7469.417309	0.097573	0.175625	13253.649414
7469.418347	0.097584	0.175625	13354.941406
7469.419230	0.097540	0.175625	13441.069336
7469.420085	0.097610	0.175625	13524.525391
7469.421141	0.097500	0.175625	13627.485352
7469.422056	0.097588	0.175625	13716.778320
7469.422936	0.097493	0.175625	13802.572266
7469.423920	0.097584	0.175625	13898.594727
7469.424928	0.097573	0.175625	13996.948242
7470.465977	0.995266	0.186159	422.988098
7470.467015	1.478141	0.186159	1957.298340
7470.468036	1.462983	0.186159	3451.004395
7470.468928	1.428999	0.186159	4725.671387
7470.469902	1.392122	0.186159	6081.597656
7470.470981	1.352585	0.186159	7541.037109
7470.471908	1.320253	0.186159	8764.911133
7470.472773	1.289839	0.186159	9880.622070
7470.473881	1.254804	0.186159	11270.944336
7470.474868	1.224049	0.186159	12479.081055
7470.475770	0.693699	0.186159	13104.796875
7470.476750	0.104886	0.186159	13207.585937
7470.477807	0.097584	0.186159	13310.732422
7470.478708	0.097562	0.186159	13398.635742
7470.479567	0.097548	0.186159	13482.428711
7470.480671	0.097679	0.186159	13590.266602
7470.481639	0.097449	0.186159	13684.596680
7470.482499	0.097581	0.186159	13768.515625
7470.483580	0.097665	0.186159	13874.090820
7470.484614	0.097485	0.186159	13974.890625
7470.485489	0.097438	0.186159	14060.148437
7471.474198	1.072474	0.177418	541.599548
7471.475118	1.479291	0.177418	1902.547119
7471.475979	1.469385	0.177418	3167.687500
7471.477080	1.428929	0.177418	4740.938965
7471.478080	1.390162	0.177418	6131.101562
7471.478967	1.357566	0.177418	7335.262695
7471.479984	1.322402	0.177418	8680.145508
7471.481042	1.286814	0.177418	10041.594727
7471.481928	1.257393	0.177418	11155.644531
7471.482801	1.228905	0.177418	12228.478516
7471.483931	0.654635	0.177418	12968.215820
7471.484898	0.101338	0.177418	13066.209961
7471.485763	0.097423	0.177418	13150.480469
7471.486781	0.097643	0.177418	13249.880859
7471.487826	0.097606	0.177418	13351.878906
7471.488713	0.097463	0.177418	13438.329102
7471.489623	0.097515	0.177418	13527.067383
7471.490715	0.097588	0.177418	13633.633789
7471.491651	0.097467	0.177418	13724.863281
7471.492516	0.097544	0.177418	13809.239258
7471.493569	0.097603	0.177418	13912.014648
7472.535478	0.986847	0.184391	415.462555
7472.536453	1.472611	0.184391	1851.258301
7472.537507	1.464807	0.184391	3395.165039
7472.538421	1.429731	0.184391	4701.939453
7472.539288	1.394912	0.184391	5911.328125
7472.540378	1.356178	0.184391	7389.562012
7472.541372	1.321633	0.184391	8703.265625
7472.542264	1.291274	0.184391	9855.082031
7472.543136	1.262640	0.184391	10956.104492
7472.544156	1.231523	0.184391	12212.257812
7472.545051	0.918593	0.184391	13034.398437
7472.545968	0.128833	0.184391	13152.538086
7472.546842	0.097445	0.184391	13237.705078
7472.547897	0.097559	0.184391	13340.628906
7472.548792	0.097449	0.184391	13427.845703
7472.549664	0.097434	0.184391	13512.808594
7472.550632	0.097599	0.184391	13607.284180
7472.551600	0.097408	0.184391	13701.575195
7472.552518	0.097441	0.184391	13791.026367
7472.553382	0.097471	0.184391	13875.241211
7472.554405	0.097555	0.184391	13975.040039
7473.545155	0.996958	0.176874	425.701080
7473.546069	1.470963	0.176874	1770.161377
7473.547131	1.465917	0.176874	3326.964844
7473.548085	1.429574	0.176874	4690.778320
7473.549013	1.394535	0.176874	5984.906738
7473.549878	1.362257	0.176874	7163.259277
7473.550924	1.326167	0.176874	8550.429687
7473.551797	1.295105	0.176874	9681.056641
7473.552674	1.266808	0.176874	10792.046875
7473.553565	1.237987	0.176874	11895.093750
7473.554613	1.036758	0.176874	12981.616211
7473.555516	0.160441	0.176874	13126.494141
7473.556389	0.097416	0.176874	13211.538086
7473.557380	0.097636	0.176874	13308.294922
7473.558305	0.097412	0.176874	13398.401367
7473.559228	0.097599	0.176874	13488.485352
7473.560087	0.097606	0.176874	13572.329102
7473.561127	0.097661	0.176874	13673.896484
7473.562009	0.097511	0.176874	13759.901367
7473.562873	0.097394	0.176874	13844.049805
7473.563841	0.097551	0.176874	13938.479492
7474.604990	0.992454	0.185144	420.800354
7474.605874	1.470549	0.185144	1720.765869
7474.606983	1.465895	0.185144	3346.443115
7474.607945	1.429248	0.185144	4721.379883
7474.608811	1.395601	0.185144	5929.969727
7474.609837	1.357657	0.185144	7322.926270
7474.610872	1.321527	0.185144	8690.707031
7474.611766	1.290879	0.185144	9844.752930
7474.612706	1.260868	0.185144	11029.968750
7474.613792	1.226840	0.185144	12362.316406
7474.614735	0.747975	0.185144	13067.656250
7474.615603	0.110072	0.185144	13163.199219
7474.616677	0.097588	0.185144	13268.008789
7474.617690	0.097449	0.185144	13366.724609
7474.618577	0.097507	0.185144	13453.213867
7474.619551	0.097628	0.185144	13548.303711
7474.620612	0.097485	0.185144	13651.735352
7474.621528	0.097423	0.185144	13740.974609
7474.622390	0.097401	0.185144	13824.934570
7474.623478	0.097614	0.185144	13931.137695
7474.624475	0.097452	0.185144	14028.297852
7475.613192	1.058456	0.175730	529.227905
7475.614212	1.481334	0.175730	2040.188843
7475.615105	1.465781	0.175730	3349.131592
7475.616073	1.429244	0.175730	4732.640137
7475.617128	1.388394	0.175730	6197.395508
7475.618065	1.353666	0.175730	7465.780273
7475.618932	1.322966	0.175730	8612.791992
7475.620015	1.287133	0.175730	10006.756836
7475.621017	1.254869	0.175730	11264.135742
7475.621899	1.227557	0.175730	12346.841797
7475.622911	0.704333	0.175730	13059.626953
7475.623971	0.101726	0.175730	13167.457031
7475.624862	0.097471	0.175730	13254.303711
7475.625719	0.097515	0.175730	13337.874023
7475.626826	0.097614	0.175730	13445.932617
7475.627781	0.097423	0.175730	13538.971680
7475.628636	0.097606	0.175730	13622.424805
7475.629685	0.097606	0.175730	13724.813477
7475.630754	0.097518	0.175730	13829.060547
7475.631626	0.097537	0.175730	13914.112305
7475.632542	0.097595	0.175730	14003.509766
7476.674500	1.001946	0.185933	433.842560
7476.675370	1.471685	0.185933	1714.208130
7476.676431	1.467484	0.185933	3271.208740
7476.677451	1.428655	0.185933	4728.436523
7476.678350	1.393803	0.185933	5981.464844
7476.679317	1.359086	0.185933	7295.700684
7476.680397	1.321088	0.185933	8722.475586
7476.681320	1.289835	0.185933	9912.993164
7476.682187	1.260227	0.185933	11005.610352
7476.683276	1.227583	0.185933	12342.448242
7476.684279	0.690952	0.185933	13035.473633
7476.685175	0.105542	0.185933	13130.039062
7476.686177	0.097500	0.185933	13227.734375
7476.687207	0.097588	0.185933	13328.250000
7476.688092	0.097463	0.185933	13414.504883
7476.688953	0.097584	0.185933	13498.525391
7476.690059	0.097661	0.185933	13606.539062
7476.691012	0.097467	0.185933	13699.424805
7476.691873	0.097540	0.185933	13783.407227
7476.692955	0.097668	0.185933	13889.084961
7476.694000	0.097405	0.185933	13990.873047
7477.682101	1.003788	0.177337	421.590912
7477.683197	1.479800	0.177337	2043.451416
7477.684194	1.461962	0.177337	3501.027344
7477.685089	1.427578	0.177337	4778.709961
7477.686071	1.390382	0.177337	6144.065430
7477.687136	1.352135	0.177337	7584.089355
7477.688026	1.320121	0.177337	8758.997070
7477.688928	1.289073	0.177337	9921.741211
7477.690034	1.254108	0.177337	11308.784180
7477.691003	1.224086	0.177337	12494.922852
7477.691874	0.720377	0.177337	13122.371094
7477.692916	0.102480	0.177337	13229.155273
7477.693942	0.097518	0.177337	13329.208984
7477.694819	0.097511	0.177337	13414.726562
7477.695756	0.097632	0.177337	13506.208008
7477.696805	0.097581	0.177337	13608.570312
7477.697732	0.097496	0.177337	13698.949219
7477.698594	0.097515	0.177337	13783.006836
7477.699653	0.097603	0.177337	13886.368164
7477.700669	0.097577	0.177337	13985.505859
7477.701542	0.097526	0.177337	14070.645508
7478.745020	0.994493	0.182618	421.665222
7478.745887	1.470355	0.182618	1696.463135
7478.747008	1.466558	0.182618	3340.474121
7478.747893	1.432178	0.182618	4607.951172
7478.748757	1.398801	0.182618	5816.515625
7478.749845	1.358866	0.182618	7294.961914
7478.750824	1.324841	0.182618	8591.981445
7478.751704	1.294373	0.182618	9731.029297
7478.752596	1.264299	0.182618	10858.784180
7478.753706	1.231395	0.182618	12225.632812
7478.754583	0.956144	0.182618	13064.170898
7478.755455	0.142617	0.182618	13188.533203
7478.756482	0.097551	0.182618	13288.718750
7478.757452	0.097507	0.182618	13383.300781
7478.758324	0.097570	0.182618	13468.381836
7478.759390	0.097661	0.182618	13572.488281
7478.760437	0.097540	0.182618	13674.613281
7478.761332	0.097504	0.182618	13761.878906
7478.762261	0.097581	0.182618	13852.531250
7478.763330	0.097555	0.182618	13956.817383
7478.764271	0.097529	0.182618	14048.592773
7479.751104	1.005388	0.174380	433.322296
7479.751973	1.471564	0.174380	1712.111084
7479.752837	1.472582	0.174380	2984.421875
7479.753910	1.434155	0.174380	4523.270508
7479.754810	1.399559	0.174380	5782.874023
7479.755692	1.367032	0.174380	6988.596680
7479.756707	1.331609	0.174380	8340.179687
7479.757652	1.298533	0.174380	9567.292969
7479.758540	1.269272	0.174380	10694.407227
7479.759544	1.238727	0.174380	11938.088867
7479.760549	1.048345	0.174380	12991.675781
7479.761434	0.172185	0.174380	13144.059570
7479.762289	0.097394	0.174380	13227.331055
7479.763335	0.097566	0.174380	13329.384766
7479.764247	0.097518	0.174380	13418.321289
7479.765123	0.097544	0.174380	13503.769531
7479.766097	0.097657	0.174380	13598.887695
7479.767115	0.097460	0.174380	13698.101562
7479.767999	0.097500	0.174380	13784.291992
7479.768863	0.097603	0.174380	13868.620117
7479.769927	0.097639	0.174380	13972.507812
7480.815034	1.002491	0.184201	425.056396
7480.816122	1.479532	0.184201	2034.787720
7480.817120	1.462284	0.184201	3494.146973
7480.818011	1.427926	0.184201	4766.429199
7480.818994	1.390584	0.184201	6133.373047
7480.820067	1.351754	0.184201	7583.805176
7480.820980	1.319443	0.184201	8788.457031
7480.821846	1.288766	0.184201	9904.528320
7480.822953	1.254346	0.184201	11293.088867
7480.823921	1.224518	0.184201	12478.421875
7480.824793	0.737124	0.184201	13121.194336
7480.825867	0.102499	0.184201	13231.278320
7480.826898	0.097493	0.184201	13331.792969
7480.827773	0.097493	0.184201	13417.098633
7480.828688	0.097500	0.184201	13506.311523
7480.829764	0.097683	0.184201	13611.418945
7480.830700	0.097555	0.184201	13702.730469
7480.831556	0.097562	0.184201	13786.244141
7480.832579	0.097650	0.184201	13886.140625
7480.833638	0.097562	0.184201	13989.458984
7480.834511	0.097493	0.184201	14074.570312
7481.819692	1.101797	0.177913	585.054138
7481.820636	1.481001	0.177913	1983.118896
7481.821500	1.467876	0.177913	3251.363770
7481.822566	1.427930	0.177913	4773.537109
7481.823587	1.388793	0.177913	6191.494141
7481.824473	1.356302	0.177913	7393.178223
7481.825466	1.321959	0.177913	8705.883789
7481.826511	1.286580	0.177913	10050.359375
7481.827435	1.256188	0.177913	11211.077148
7481.828304	1.228777	0.177913	12278.883789
7481.829386	0.684276	0.177913	13019.270508
7481.830387	0.101323	0.177913	13120.695312
7481.831258	0.097460	0.177913	13205.583008
7481.832258	0.097606	0.177913	13303.189453
7481.833326	0.097559	0.177913	13407.381836
7481.834202	0.097603	0.177913	13492.881836
7481.835066	0.097555	0.177913	13577.168945
7481.836175	0.097621	0.177913	13685.430664
7481.837155	0.097419	0.177913	13780.901367
7481.838023	0.097551	0.177913	13865.576172
7481.839067	0.097617	0.177913	13967.488281
7482.885075	1.016177	0.181325	457.279510
7482.886172	1.480518	0.181325	2081.407227
7482.887140	1.462251	0.181325	3496.866211
7482.888009	1.428640	0.181325	4738.354492
7482.889050	1.388720	0.181325	6184.011719
7482.890085	1.350952	0.181325	7582.247070
7482.890986	1.319458	0.181325	8771.079102
7482.891865	1.290198	0.181325	9905.163086
7482.892838	1.259008	0.181325	11130.177734
7482.893825	1.227799	0.181325	12342.015625
7482.894756	0.798739	0.181325	13085.641602
7482.895615	0.115466	0.181325	13184.827148
7482.896658	0.097507	0.181325	13286.527344
7482.897539	0.097500	0.181325	13372.424805
7482.898406	0.097482	0.181325	13456.941406
7482.899291	0.097643	0.181325	13543.355469
7482.900335	0.097577	0.181325	13645.225586
7482.901224	0.097610	0.181325	13732.000977
7482.902083	0.097599	0.181325	13815.838867
7482.903177	0.097573	0.181325	13922.583984
7482.904086	0.097548	0.181325	14011.254883
7483.888674	1.076656	0.175681	568.474609
7483.889738	1.481843	0.175681	2145.155762
7483.890647	1.462427	0.175681	3474.501709
7483.891511	1.427952	0.175681	4708.251953
7483.892624	1.386515	0.175681	6251.442871
7483.893607	1.350963	0.175681	7579.439453
7483.894479	1.320227	0.175681	8730.677734
7483.895541	1.284778	0.175681	10095.111328
7483.896597	1.251134	0.175681	11416.308594
7483.897496	1.223185	0.175681	12515.952148
7483.898435	0.631187	0.175681	13108.636719
7483.899495	0.099701	0.175681	13214.319336
7483.900429	0.097500	0.175681	13305.384766
7483.901287	0.097482	0.175681	13389.024414
7483.902328	0.097668	0.175681	13490.697266
7483.903350	0.097496	0.175681	13590.338867
7483.904229	0.097566	0.175681	13676.099609
7483.905189	0.097599	0.175681	13769.794922
7483.906237	0.097577	0.175681	13872.055664
7483.907165	0.097522	0.175681	13962.555664
7483.908023	0.097573	0.175681	14046.273437
7484.954054	1.001063	0.183319	431.458252
7484.954927	1.472018	0.183319	1716.529785
7484.955867	1.470981	0.183319	3099.252441
7484.956862	1.434185	0.183319	4526.266113
7484.957781	1.399036	0.183319	5811.979980
7484.958657	1.366641	0.183319	7009.157227
7484.959735	1.329078	0.183319	8441.903320
7484.960638	1.297313	0.183319	9613.376953
7484.961517	1.268265	0.183319	10728.182617
7484.962391	1.239697	0.183319	11811.677734
7484.963443	1.092319	0.183319	12960.797852
7484.964338	0.191407	0.183319	13132.107422
7484.965194	0.097394	0.183319	13215.476562
7484.966284	0.097482	0.183319	13321.731445
7484.967171	0.097562	0.183319	13408.269531
7484.968041	0.097471	0.183319	13493.069336
7484.969026	0.097544	0.183319	13589.150391
7484.970022	0.097412	0.183319	13686.172852
7484.970905	0.097493	0.183319	13772.258789
7484.971765	0.097540	0.183319	13856.143555
7484.972865	0.097592	0.183319	13963.494141
7485.958095	1.012943	0.177832	454.811462
7485.959183	1.479554	0.177832	2064.566650
7485.960149	1.462672	0.177832	3477.507812
7485.961079	1.426974	0.177832	4804.593750
7485.961953	1.393250	0.177832	6022.293945
7485.962992	1.355768	0.177832	7430.936523
7485.963873	1.324255	0.177832	8597.605469
7485.964740	1.294204	0.177832	9719.680664
7485.965630	1.263878	0.177832	10844.532227
7485.966669	1.232706	0.177832	12125.314453
7485.967567	1.008929	0.177832	13031.333008
7485.968445	0.156669	0.177832	13168.887695
7485.969454	0.097357	0.177832	13267.121094
7485.970386	0.097610	0.177832	13358.093750
7485.971307	0.097570	0.177832	13447.955078
7485.972168	0.097504	0.177832	13531.905273
7485.973206	0.097500	0.177832	13633.110352
7485.974088	0.097500	0.177832	13719.105469
7485.974956	0.097526	0.177832	13803.757812
7485.975956	0.097690	0.177832	13901.448242
7485.976886	0.097460	0.177832	13992.085937
7487.023551	1.000294	0.182199	431.126740
7487.024416	1.471022	0.182199	1703.560547
7487.025517	1.466085	0.182199	3317.720215
7487.026520	1.427856	0.182199	4749.860352
7487.027420	1.393326	0.182199	6003.854004
7487.028409	1.357361	0.182199	7346.284180
7487.029442	1.320981	0.182199	8710.857422
7487.030349	1.289561	0.182199	9880.489258
7487.031212	1.261201	0.182199	10968.906250
7487.032303	1.228462	0.182199	12309.158203
7487.033268	0.776528	0.182199	13058.507812
7487.034133	0.112797	0.182199	13156.077148
7487.035161	0.097584	0.182199	13256.393555
7487.036213	0.097592	0.182199	13359.059570
7487.037096	0.097507	0.182199	13445.158203
7487.037974	0.097540	0.182199	13530.798828
7487.039070	0.097562	0.182199	13637.727539
7487.040030	0.097430	0.182199	13731.260742
7487.040895	0.097551	0.182199	13815.642578
7487.041914	0.097625	0.182199	13915.122070
7487.042948	0.097533	0.182199	14015.970703
7488.026571	1.002184	0.177450	438.956512
7488.027436	1.471381	0.177450	1711.700806
7488.028466	1.467653	0.177450	3223.382812
7488.029524	1.428146	0.177450	4734.361328
7488.030420	1.393678	0.177450	5983.096680
7488.031356	1.359269	0.177450	7255.372070
7488.032432	1.321560	0.177450	8677.371094
7488.033377	1.289557	0.177450	9896.001953
7488.034253	1.260758	0.177450	11000.425781
7488.035329	1.227598	0.177450	12321.320312
7488.036345	0.693882	0.177450	13026.304687
7488.037237	0.105150	0.177450	13120.098633
7488.038223	0.097537	0.177450	13216.269531
7488.039279	0.097559	0.177450	13319.291016
7488.040191	0.097518	0.177450	13408.227539
7488.041054	0.097599	0.177450	13492.455078
7488.042156	0.097657	0.177450	13600.073242
7488.043139	0.097584	0.177450	13695.999023
7488.044027	0.097474	0.177450	13782.556641
7488.045026	0.097709	0.177450	13880.167969
7488.046088	0.097654	0.177450	13983.875977
7489.092121	1.073668	0.183887	541.128784
7489.093090	1.480638	0.183887	1975.867432
7489.093954	1.468114	0.183887	3244.317871
7489.095027	1.427476	0.183887	4775.999023
7489.096067	1.388024	0.183887	6219.543457
7489.096950	1.355127	0.183887	7416.120605
7489.097884	1.322289	0.183887	8651.138672
7489.098948	1.286690	0.183887	10020.175781
7489.099897	1.256151	0.183887	11212.263672
7489.100763	1.228872	0.183887	12276.466797
7489.101797	0.710028	0.183887	13010.635742
7489.102823	0.101851	0.183887	13115.134766
7489.103716	0.097496	0.183887	13202.199219
7489.104669	0.097500	0.183887	13295.117187
7489.105738	0.097533	0.183887	13399.379883
7489.106655	0.097467	0.183887	13488.756836
7489.107564	0.097504	0.183887	13577.387695
7489.108433	0.097522	0.183887	13662.134766
7489.109474	0.097595	0.183887	13763.731445
7489.110365	0.097489	0.183887	13850.593750
7489.111234	0.097449	0.183887	13935.276367
7490.097590	1.008772	0.174920	427.719330
7490.098694	1.479316	0.174920	2060.884521
7490.099666	1.462705	0.174920	3482.633789
7490.100535	1.429120	0.174920	4724.539062
7490.101602	1.388888	0.174920	6206.482422
7490.102649	1.351036	0.174920	7621.017578
7490.103529	1.319334	0.174920	8782.031250
7490.104458	1.287708	0.174920	9978.311523
7490.105545	1.253214	0.174920	11340.555664
7490.106483	1.223932	0.174920	12488.603516
7490.107356	0.720403	0.174920	13117.515625
7490.108392	0.102352	0.174920	13223.552734
7490.109413	0.097478	0.174920	13323.078125
7490.110295	0.097434	0.174920	13409.014648
7490.111248	0.097551	0.174920	13501.981445
7490.112304	0.097507	0.174920	13604.949219
7490.113235	0.097430	0.174920	13695.657227
7490.114099	0.097551	0.174920	13779.941406
7490.115181	0.097606	0.174920	13885.551758
7490.116174	0.097496	0.174920	13982.365234
7490.117070	0.097485	0.174920	14069.711914
7491.161630	1.062554	0.184358	558.903198
7491.162683	1.482308	0.184358	2119.773926
7491.163570	1.463665	0.184358	3418.044434
7491.164437	1.429464	0.184358	4657.389648
7491.165513	1.389324	0.184358	6152.301758
7491.166448	1.354889	0.184358	7419.123047
7491.167323	1.323358	0.184358	8577.061523
7491.168390	1.288158	0.184358	9951.526367
7491.169403	1.255206	0.184358	11223.050781
7491.170296	1.227803	0.184358	12319.478516
7491.171276	0.739376	0.184358	13044.067383
7491.172329	0.102524	0.184358	13152.025391
7491.173236	0.097518	0.184358	13240.474609
7491.174096	0.097599	0.184358	13324.409180
7491.175192	0.097621	0.184358	13431.401367
7491.176178	0.097526	0.184358	13527.561523
7491.177055	0.097566	0.184358	13613.126953
7491.178055	0.097665	0.184358	13710.791992
7491.179115	0.097599	0.184358	13814.247070
7491.179993	0.097482	0.184358	13899.835937
7491.180857	0.097603	0.184358	13984.164062
7492.165681	1.090528	0.178501	582.342224
7492.166561	1.478273	0.178501	1883.222168
7492.167431	1.469692	0.178501	3161.854492
7492.168299	1.435027	0.178501	4407.458008
7492.169362	1.395934	0.178501	5891.335937
7492.170262	1.362590	0.178501	7117.666992
7492.171128	1.330884	0.178501	8270.212891
7492.172236	1.294904	0.178501	9704.965820
7492.173151	1.264523	0.178501	10862.003906
7492.174035	1.236907	0.178501	11955.429687
7492.175028	1.008867	0.178501	12957.234375
7492.176036	0.132788	0.178501	13091.084961
7492.176922	0.097456	0.178501	13177.430664
7492.177780	0.097639	0.178501	13261.205078
7492.178861	0.097606	0.178501	13366.717773
7492.179765	0.097496	0.178501	13454.854492
7492.180633	0.097599	0.178501	13539.570312
7492.181642	0.097606	0.178501	13638.054687
7492.182645	0.097518	0.178501	13735.865234
7492.183515	0.097555	0.178501	13820.738281
7492.184493	0.097599	0.178501	13916.190430
7493.233090	1.004729	0.180290	433.038147
7493.233956	1.470773	0.180290	1706.727295
7493.235083	1.465111	0.180290	3357.907715
7493.236053	1.428362	0.180290	4743.418457
7493.236922	1.394520	0.180290	5955.256836
7493.237989	1.355739	0.180290	7401.830078
7493.239018	1.319967	0.180290	8760.076172
7493.239904	1.289326	0.180290	9902.418945
7493.240853	1.259319	0.180290	11097.512695
7493.241916	1.226030	0.180290	12400.783203
7493.242848	0.726255	0.180290	13077.652344
7493.243707	0.109131	0.180290	13171.395508
7493.244785	0.097581	0.180290	13276.586914
7493.245807	0.097405	0.180290	13376.134766
7493.246686	0.097441	0.180290	13461.786133
7493.247661	0.097581	0.180290	13556.926758
7493.248706	0.097529	0.180290	13658.844727
7493.249609	0.097485	0.180290	13746.874023
7493.250479	0.097526	0.180290	13831.721680
7493.251541	0.097643	0.180290	13935.417969
7493.252548	0.097500	0.180290	14033.600586
7494.236096	0.997214	0.175633	427.804932
7494.236965	1.470692	0.175633	1705.836426
7494.238026	1.467209	0.175633	3262.545654
7494.239046	1.428354	0.175633	4719.467285
7494.239944	1.394092	0.175633	5971.361816
7494.240915	1.358701	0.175633	7290.660645
7494.241975	1.321249	0.175633	8691.184570
7494.242892	1.289784	0.175633	9873.916016
7494.243757	1.260879	0.175633	10964.576172
7494.244839	1.228282	0.175633	12293.578125
7494.245835	0.744547	0.175633	13035.147461
7494.246724	0.108636	0.175633	13131.725586
7494.247723	0.097533	0.175633	13229.161133
7494.248755	0.097485	0.175633	13329.765625
7494.249646	0.097456	0.175633	13416.598633
7494.250501	0.097632	0.175633	13500.074219
7494.251599	0.097581	0.175633	13607.217773
7494.252569	0.097430	0.175633	13701.725586
7494.253428	0.097419	0.175633	13785.409180
7494.254525	0.097570	0.175633	13892.443359
7494.255563	0.097474	0.175633	13993.622070
7495.300537	0.990652	0.183420	418.055084
7495.301603	1.477504	0.183420	1993.073975
7495.302563	1.464598	0.183420	3399.088379
7495.303437	1.430610	0.183420	4649.441895
7495.304357	1.394513	0.183420	5932.394043
7495.305447	1.355471	0.183420	7409.857422
7495.306344	1.323896	0.183420	8597.392578
7495.307289	1.291853	0.183420	9818.193359
7495.308367	1.256726	0.183420	11172.944336
7495.309316	1.227557	0.183420	12337.896484
7495.310193	0.845478	0.183420	13079.380859
7495.311236	0.107465	0.183420	13191.466797
7495.312248	0.097555	0.183420	13290.192383
7495.313141	0.097540	0.183420	13377.295898
7495.314105	0.097654	0.183420	13471.434570
7495.315161	0.097599	0.183420	13574.499023
7495.316088	0.097493	0.183420	13664.875000
7495.316949	0.097507	0.183420	13748.829102
7495.318040	0.097639	0.183420	13855.353516
7495.319027	0.097434	0.183420	13951.520508
7495.319919	0.097441	0.183420	14038.438477
7496.305186	1.069889	0.178876	552.062683
7496.306074	1.478123	0.178876	1864.635498
7496.306955	1.469725	0.178876	3159.463379
7496.307972	1.431595	0.178876	4615.395996
7496.308976	1.392513	0.178876	6013.479492
7496.309871	1.359690	0.178876	7230.401855
7496.310736	1.327954	0.178876	8379.082031
7496.311862	1.291531	0.178876	9833.345703
7496.312765	1.261545	0.178876	10972.521484
7496.313645	1.234047	0.178876	12058.482422
7496.314654	0.917498	0.178876	12984.237305
7496.315634	0.118253	0.178876	13100.125000
7496.316510	0.097335	0.178876	13185.390625
7496.317530	0.097588	0.178876	13284.930664
7496.318570	0.097504	0.178876	13386.333984
7496.319454	0.097548	0.178876	13472.566406
7496.320309	0.097478	0.178876	13555.910156
7496.321422	0.097573	0.178876	13664.508789
7496.322389	0.097478	0.178876	13758.770508
7496.323245	0.097416	0.178876	13842.158203
7496.324309	0.097551	0.178876	13945.953125
7497.369541	0.999166	0.184205	428.642303
7497.370499	1.471366	0.184205	1838.210937
7497.371550	1.464913	0.184205	3377.834961
7497.372485	1.428948	0.184205	4713.901367
7497.373349	1.395146	0.184205	5919.308105
7497.374429	1.356350	0.184205	7384.166016
7497.375443	1.320546	0.184205	8723.199219
7497.376318	1.290835	0.184205	9852.679687
7497.377295	1.259205	0.184205	11082.923828
7497.378366	1.226294	0.184205	12396.285156
7497.379268	0.762034	0.184205	13083.639648
7497.380137	0.111105	0.184205	13180.189453
7497.381238	0.097515	0.184205	13287.552734
7497.382235	0.097482	0.184205	13384.742187
7497.383123	0.097412	0.184205	13471.244141
7497.384108	0.097636	0.184205	13567.415039
7497.385162	0.097566	0.184205	13670.250000
7497.386046	0.097606	0.184205	13756.534180
7497.386918	0.097610	0.184205	13841.650391
7497.388017	0.097621	0.184205	13948.935547
7497.388969	0.097551	0.184205	14041.804687
7498.376127	0.994794	0.174839	422.787323
7498.377118	1.471340	0.174839	1880.885620
7498.378181	1.463221	0.174839	3436.290039
7498.379099	1.427681	0.174839	4746.900879
7498.379964	1.393601	0.174839	5952.365723
7498.381058	1.354852	0.174839	7434.574219
7498.382056	1.319692	0.174839	8751.626953
7498.382927	1.290011	0.174839	9875.226562
7498.383919	1.258323	0.174839	11123.482422
7498.384974	1.225532	0.174839	12416.418945
7498.385876	0.741361	0.174839	13085.126953
7498.386742	0.109658	0.174839	13180.090820
7498.387832	0.097562	0.174839	13286.433594
7498.388791	0.097511	0.174839	13379.946289
7498.389673	0.097496	0.174839	13465.938477
7498.390674	0.097764	0.174839	13563.799805
7498.391739	0.097548	0.174839	13667.688477
7498.392626	0.097485	0.174839	13754.158203
7498.393507	0.097592	0.174839	13840.136719
7498.394600	0.097705	0.174839	13946.928711
7498.395560	0.097555	0.174839	14040.581055
7499.438571	1.051285	0.184403	486.745148
7499.439448	1.474387	0.184403	1779.782715
7499.440312	1.471373	0.184403	3051.049316
7499.441403	1.432009	0.184403	4613.371582
7499.442320	1.396414	0.184403	5893.882812
7499.443194	1.363740	0.184403	7085.791992
7499.444204	1.329276	0.184403	8428.361328
7499.445221	1.294098	0.184403	9744.458984
7499.446094	1.265079	0.184403	10848.873047
7499.447069	1.234757	0.184403	12052.761719
7499.448135	0.876940	0.184403	12987.579102
7499.449044	0.122380	0.184403	13098.823242
7499.449910	0.097441	0.184403	13183.207031
7499.450997	0.097632	0.184403	13289.333008
7499.451990	0.097467	0.184403	13386.118164
7499.452884	0.097533	0.184403	13473.312500
7499.453881	0.097661	0.184403	13570.680664
7499.454934	0.097540	0.184403	13673.390625
7499.455830	0.097614	0.184403	13760.852539
7499.456703	0.097646	0.184403	13846.097656
7499.457806	0.097595	0.184403	13953.745117
7500.445187	1.077188	0.175798	522.435974
7500.446077	1.475837	0.175798	1835.931396
7500.446944	1.469956	0.175798	3110.383301
7500.448035	1.430369	0.175798	4670.915527
7500.448946	1.394868	0.175798	5941.640625
7500.449819	1.362894	0.175798	7131.447266
7500.450812	1.327613	0.175798	8449.767578
7500.451826	1.293223	0.175798	9761.095703
7500.452719	1.264058	0.175798	10889.899414
7500.453588	1.235834	0.175798	11963.838867
7500.454692	0.915439	0.175798	12974.484375
7500.455616	0.126691	0.175798	13091.546875
7500.456474	0.097397	0.175798	13175.114258
7500.457575	0.097555	0.175798	13282.522461
7500.458547	0.097423	0.175798	13377.217773
7500.459439	0.097548	0.175798	13464.230469
7500.460421	0.097555	0.175798	13560.029297
7500.461472	0.097614	0.175798	13662.621094
7500.462376	0.097614	0.175798	13750.863281
7500.463236	0.097584	0.175798	13834.786133
7500.464339	0.097661	0.175798	13942.506836
7501.508123	1.070548	0.182936	549.191162
7501.508995	1.477170	0.182936	1837.283813
7501.509909	1.468107	0.182936	3179.133301
7501.510999	1.427560	0.182936	4735.173828
7501.511958	1.391385	0.182936	6069.512695
7501.512830	1.358503	0.182936	7254.127930
7501.513869	1.322523	0.182936	8628.229492
7501.514902	1.287770	0.182936	9958.496094
7501.515797	1.258912	0.182936	11085.222656
7501.516761	1.229242	0.182936	12270.211914
7501.517829	0.683119	0.182936	12999.783203
7501.518761	0.103136	0.182936	13095.906250
7501.519627	0.097573	0.182936	13180.404297
7501.520710	0.097639	0.182936	13286.147461
7501.521700	0.097518	0.182936	13382.690430
7501.522595	0.097434	0.182936	13469.893555
7501.523568	0.097559	0.182936	13564.818359
7501.524605	0.097522	0.182936	13665.948242
7501.525510	0.097518	0.182936	13754.202148
7501.526372	0.097533	0.182936	13838.275391
7501.527457	0.097548	0.182936	13944.114258
7502.514695	1.056522	0.175903	521.921997
7502.515580	1.476768	0.175903	1828.861328
7502.516516	1.468253	0.175903	3203.146240
7502.517594	1.427692	0.175903	4742.197754
7502.518541	1.391514	0.175903	6059.960937
7502.519409	1.359009	0.175903	7239.580566
7502.520456	1.322703	0.175903	8624.450195
7502.521483	1.287894	0.175903	9947.117187
7502.522388	1.258839	0.175903	11086.366211
7502.523358	1.229118	0.175903	12278.610352
7502.524432	0.672719	0.175903	13001.110352
7502.525358	0.102887	0.175903	13096.383789
7502.526220	0.097427	0.175903	13180.365234
7502.527314	0.097668	0.175903	13287.214844
7502.528303	0.097544	0.175903	13383.685547
7502.529189	0.097529	0.175903	13470.096680
7502.530193	0.097690	0.175903	13568.177734
7502.531242	0.097518	0.175903	13670.474609
7502.532135	0.097518	0.175903	13757.558594
7502.532990	0.097540	0.175903	13840.955078
7502.534070	0.097738	0.175903	13946.511719
7503.576504	0.989843	0.184616	417.713562
7503.577474	1.471469	0.184616	1845.038086
7503.578444	1.467188	0.184616	3268.209961
7503.579366	1.432441	0.184616	4588.920898
7503.580235	1.398479	0.184616	5804.199219
7503.581269	1.361265	0.184616	7211.747070
7503.582164	1.328628	0.184616	8400.869141
7503.583038	1.299071	0.184616	9536.256836
7503.583950	1.268749	0.184616	10693.355469
7503.584975	1.237302	0.184616	11961.589844
7503.585879	1.095209	0.184616	12951.658203
7503.586779	0.197963	0.184616	13129.824219
7503.587777	0.097474	0.184616	13227.103516
7503.588687	0.097504	0.184616	13315.832031
7503.589560	0.097504	0.184616	13400.953125
7503.590548	0.097500	0.184616	13497.283203
7503.591553	0.097449	0.184616	13595.218750
7503.592436	0.097529	0.184616	13681.336914
7503.593300	0.097625	0.184616	13765.684570
7503.594401	0.097504	0.184616	13873.036133
7503.595307	0.097511	0.184616	13961.380859
7504.584687	1.049337	0.175198	492.139130
7504.585568	1.474695	0.175198	1791.345215
7504.586572	1.467894	0.175198	3265.111084
7504.587628	1.427618	0.175198	4772.676270
7504.588528	1.392290	0.175198	6025.737305
7504.589401	1.359166	0.175198	7212.289551
7504.590498	1.321652	0.175198	8662.141602
7504.591493	1.287795	0.175198	9943.498047
7504.592388	1.259059	0.175198	11070.355469
7504.593378	1.228462	0.175198	12286.533203
7504.594444	0.687312	0.175198	13019.208008
7504.595332	0.104806	0.175198	13112.275391
7504.596200	0.097434	0.175198	13196.848633
7504.597058	0.097555	0.175198	13280.550781
7504.598130	0.097441	0.175198	13385.007812
7504.599029	0.097515	0.175198	13472.673828
7504.599902	0.097449	0.175198	13557.746094
7504.600920	0.097646	0.175198	13657.150391
7504.601839	0.097522	0.175198	13746.773437
7504.602759	0.097628	0.175198	13836.591797
7504.603616	0.097643	0.175198	13920.271484
7505.645005	1.014086	0.186010	447.211761
7505.645872	1.471465	0.186010	1722.971802
7505.646957	1.466210	0.186010	3313.809326
7505.647976	1.427234	0.186010	4768.160645
7505.648853	1.393879	0.186010	5990.592773
7505.649855	1.357416	0.186010	7350.723633
7505.650906	1.320579	0.186010	8738.651367
7505.651808	1.289696	0.186010	9901.957031
7505.652673	1.260198	0.186010	10992.028320
7505.653774	1.227147	0.186010	12343.117187
7505.654740	0.729584	0.186010	13047.895508
7505.655620	0.108439	0.186010	13143.321289
7505.656618	0.097518	0.186010	13240.644531
7505.657664	0.097551	0.186010	13342.683594
7505.658546	0.097526	0.186010	13428.701172
7505.659413	0.097570	0.186010	13513.293945
7505.660528	0.097650	0.186010	13622.173828
7505.661483	0.097463	0.186010	13715.250977
7505.662353	0.097485	0.186010	13800.063477
7505.663424	0.097668	0.186010	13904.666016
7505.664448	0.097559	0.186010	14004.566406
7506.655679	0.994047	0.177067	421.475769
7506.656619	1.470396	0.177067	1803.647705
7506.657654	1.466202	0.177067	3321.166992
7506.658539	1.432079	0.177067	4588.556641
7506.659484	1.395740	0.177067	5907.530762
7506.660567	1.356291	0.177067	7376.394531
7506.661502	1.322955	0.177067	8613.357422
7506.662365	1.293237	0.177067	9729.420898
7506.663404	1.259557	0.177067	11038.100586
7506.664433	1.227686	0.177067	12301.388672
7506.665329	0.860336	0.177067	13072.249023
7506.666299	0.120802	0.177067	13189.426758
7506.667348	0.097463	0.177067	13291.666016
7506.668268	0.097474	0.177067	13381.342773
7506.669132	0.097441	0.177067	13465.532227
7506.670223	0.097544	0.177067	13571.953125
7506.671212	0.097397	0.177067	13668.279297
7506.672100	0.097533	0.177067	13754.888672
7506.673077	0.097566	0.177067	13850.210937
7506.674131	0.097603	0.177067	13953.083984
7506.675036	0.097548	0.177067	14041.364258
7507.713562	1.079443	0.186437	551.595520
7507.714530	1.480876	0.186437	1985.083984
7507.715412	1.467041	0.186437	3279.014160
7507.716415	1.428794	0.186437	4712.094727
7507.717474	1.389034	0.186437	6183.082031
7507.718369	1.355277	0.186437	7396.055176
7507.719264	1.322966	0.186437	8580.110352
7507.720357	1.287290	0.186437	9987.118164
7507.721316	1.256499	0.186437	11192.100586
7507.722191	1.229022	0.186437	12267.495117
7507.723249	0.706904	0.186437	13015.399414
7507.724273	0.101624	0.186437	13119.461914
7507.725166	0.097515	0.186437	13206.542969
7507.726115	0.097694	0.186437	13299.254883
7507.727168	0.097573	0.186437	13401.999023
7507.728101	0.097551	0.186437	13493.014648
7507.728960	0.097507	0.186437	13576.773437
7507.730030	0.097679	0.186437	13681.290039
7507.731040	0.097628	0.186437	13779.894531
7507.731918	0.097639	0.186437	13865.622070
7507.732906	0.097657	0.186437	13962.107422
7508.725181	0.996343	0.175327	423.445679
7508.726155	1.472109	0.175327	1857.280151
7508.727218	1.463503	0.175327	3412.984375
7508.728131	1.428534	0.175327	4717.235840
7508.728999	1.393934	0.175327	5927.170898
7508.730116	1.354006	0.175327	7439.595703
7508.731089	1.320022	0.175327	8723.976562
7508.731969	1.289996	0.175327	9859.173828
7508.732976	1.258011	0.175327	11125.991211
7508.734048	1.224987	0.175327	12439.176758
7508.734947	0.724995	0.175327	13090.947266
7508.735821	0.108867	0.175327	13186.097656
7508.736919	0.097544	0.175327	13293.201172
7508.737871	0.097548	0.175327	13386.066406
7508.738731	0.097507	0.175327	13469.922852
7508.739768	0.097731	0.175327	13571.269531
7508.740797	0.097507	0.175327	13671.604492
7508.741674	0.097683	0.175327	13757.272461
7508.742606	0.097690	0.175327	13848.320312
7508.743668	0.097606	0.175327	13951.978516
7508.744606	0.097577	0.175327	14043.505859
7509.782462	0.994984	0.187557	424.858246
7509.783329	1.470428	0.187557	1699.719727
7509.784321	1.469447	0.187557	3157.411133
7509.785225	1.435225	0.187557	4454.854004
7509.786101	1.401683	0.187557	5682.728516
7509.787104	1.365135	0.187557	7051.959473
7509.788043	1.330950	0.187557	8301.720703
7509.788977	1.299089	0.187557	9515.070312
7509.789845	1.270009	0.187557	10617.437500
7509.790890	1.238038	0.187557	11911.187500
7509.791776	1.155081	0.187557	12934.588867
7509.792653	0.245786	0.187557	13150.143555
7509.793652	0.097683	0.187557	13247.728516
7509.794558	0.097518	0.187557	13336.080078
7509.795433	0.097518	0.187557	13421.408203
7509.796398	0.097617	0.187557	13515.608398
7509.797413	0.097581	0.187557	13614.652344
7509.798303	0.097478	0.187557	13701.408203
7509.799164	0.097599	0.187557	13785.440430
7509.800235	0.097551	0.187557	13889.917969
7509.801189	0.097522	0.187557	13982.954102
