time (s)	coil I (A)	last det (V)	int current (uC)
4633.473586	1.070625	0.137722	559.936890
4633.474664	1.487014	0.137722	2162.937988
4633.475603	1.466063	0.137722	3539.571289
4633.476475	1.431599	0.137722	4787.925781
4633.477555	1.390660	0.137722	6289.838867
4633.478557	1.353717	0.137722	7646.263672
4633.479456	1.322527	0.137722	8835.214844
4633.480448	0.557018	0.137722	9387.776367
4633.481500	0.098595	0.137722	9491.498047
4633.482394	0.097500	0.137722	9578.663086
4633.483258	0.097493	0.137722	9662.896484
4633.484365	0.097606	0.137722	9770.946289
4633.485345	0.097485	0.137722	9866.482422
4633.486209	0.097544	0.137722	9950.760742
4633.487294	0.097555	0.137722	10056.607422
4633.488337	0.097500	0.137722	10158.299805
4633.489232	0.097540	0.137722	10245.598633
4633.490162	0.097496	0.137722	10336.270508
4634.463161	1.012852	0.146682	427.423370
4634.464247	1.484637	0.146682	2039.739624
4634.465225	1.468246	0.146682	3475.684082
4634.466112	1.434434	0.146682	4748.026367
4634.467119	1.395414	0.146682	6153.208008
4634.468182	1.357104	0.146682	7595.810059
4634.469072	1.324779	0.146682	8774.863281
4634.469979	0.716854	0.146682	9425.049805
4634.471061	0.100404	0.146682	9533.686523
4634.472017	0.097529	0.146682	9626.924805
4634.472882	0.097515	0.146682	9711.275391
4634.473944	0.097566	0.146682	9814.890625
4634.474965	0.097518	0.146682	9914.457031
4634.475858	0.097493	0.146682	10001.517578
4634.476819	0.097570	0.146682	10095.282227
4634.477865	0.097533	0.146682	10197.301758
4634.478802	0.097518	0.146682	10288.676758
4634.479665	0.097551	0.146682	10372.863281
4635.543485	0.997925	0.136788	425.115967
4635.544472	1.478580	0.136788	1884.474731
4635.545402	1.473208	0.136788	3254.558105
4635.546325	1.438173	0.136788	4581.991211
4635.547205	1.403584	0.136788	5817.145020
4635.548253	1.365150	0.136788	7247.822266
4635.549151	1.333403	0.136788	8445.218750
4635.550030	1.047220	0.136788	9365.725586
4635.551018	0.147491	0.136788	9511.447266
4635.551971	0.097430	0.136788	9604.298828
4635.552888	0.097482	0.136788	9693.689453
4635.553752	0.097496	0.136788	9777.926758
4635.554802	0.097511	0.136788	9880.313477
4635.555678	0.097456	0.136788	9965.684570
4635.556542	0.097592	0.136788	10050.003906
4635.557558	0.097657	0.136788	10149.223633
4635.558524	0.097471	0.136788	10243.379883
4635.559397	0.097456	0.136788	10328.458984
4636.537399	1.102687	0.157220	589.937439
4636.538374	1.486754	0.157220	2039.522705
4636.539242	1.472428	0.157220	3317.590332
4636.540336	1.430563	0.157220	4882.625977
4636.541372	1.390433	0.157220	6323.114746
4636.542256	1.357775	0.157220	7523.387695
4636.543196	1.324940	0.157220	8768.832031
4636.544295	0.504730	0.157220	9323.530273
4636.545214	0.098925	0.157220	9414.442383
4636.546078	0.097438	0.157220	9498.628906
4636.547138	0.097526	0.157220	9602.005859
4636.548160	0.097441	0.157220	9701.590820
4636.549051	0.097452	0.157220	9788.420898
4636.550011	0.097507	0.157220	9882.028320
4636.551062	0.097496	0.157220	9984.497070
4636.551991	0.097478	0.157220	10075.053711
4636.552851	0.097471	0.157220	10158.878906
4636.553932	0.097588	0.157220	10264.371094
4637.605829	1.001107	0.142190	430.476044
4637.606867	1.482360	0.142190	1969.165405
4637.607905	1.468162	0.142190	3493.117187
4637.608794	1.433313	0.142190	4767.332520
4637.609730	1.397318	0.142190	6075.222168
4637.610784	1.358438	0.142190	7507.015625
4637.611726	1.324819	0.142190	8754.995117
4637.612596	0.773503	0.142190	9427.943359
4637.613643	0.103436	0.142190	9536.241211
4637.614673	0.097449	0.142190	9636.613281
4637.615552	0.097434	0.142190	9722.257812
4637.616511	0.097581	0.142190	9815.837891
4637.617590	0.097533	0.142190	9921.076172
4637.618501	0.097533	0.142190	10009.928711
4637.619371	0.097529	0.142190	10094.779297
4637.620417	0.097614	0.142190	10196.882812
4637.621424	0.097452	0.142190	10295.017578
4637.622316	0.097504	0.142190	10381.991211
4638.605249	1.001777	0.150762	429.762451
4638.606116	1.475969	0.150762	1709.427734
4638.607112	1.474556	0.150762	3178.084961
4638.608123	1.436602	0.150762	4630.489258
4638.609016	1.402174	0.150762	5882.630859
4638.609885	1.367959	0.150762	7071.387207
4638.611002	1.330126	0.150762	8557.137695
4638.611917	0.896151	0.150762	9377.116211
4638.612796	0.121000	0.150762	9483.474609
4638.613796	0.097460	0.150762	9580.934570
4638.614800	0.097456	0.150762	9678.780273
4638.615691	0.097343	0.150762	9765.512695
4638.616552	0.097412	0.150762	9849.384766
4638.617650	0.097460	0.150762	9956.395508
4638.618547	0.097408	0.150762	10043.770508
4638.619406	0.097423	0.150762	10127.457031
4638.620507	0.097515	0.150762	10234.820312
4638.621464	0.097408	0.150762	10328.040039
4639.675834	1.002330	0.136127	423.985718
4639.676912	1.484150	0.136127	2023.899780
4639.677921	1.467169	0.136127	3504.273437
4639.678814	1.432829	0.136127	4783.790039
4639.679797	1.395315	0.136127	6155.384766
4639.680860	1.355995	0.136127	7596.807129
4639.681767	1.323512	0.136127	8797.232422
4639.682638	0.709545	0.136127	9415.246094
4639.683741	0.100594	0.136127	9526.202148
4639.684711	0.097449	0.136127	9620.727539
4639.685573	0.097474	0.136127	9704.750000
4639.686593	0.097606	0.136127	9804.308594
4639.687639	0.097427	0.136127	9906.216797
4639.688512	0.097511	0.136127	9991.343750
4639.689377	0.097493	0.136127	10075.674805
4639.690487	0.097551	0.136127	10183.957031
4639.691434	0.097419	0.136127	10276.212891
4639.692291	0.097430	0.136127	10359.710937
4640.677397	1.072745	0.158170	543.881897
4640.678306	1.483356	0.158170	1892.252197
4640.679175	1.474036	0.158170	3173.189209
4640.680279	1.433203	0.158170	4755.445312
4640.681280	1.394568	0.158170	6151.407715
4640.682168	1.361565	0.158170	7360.477539
4640.683199	1.325966	0.158170	8727.547852
4640.684256	0.578760	0.158170	9339.296875
4640.685133	0.101056	0.158170	9427.922852
4640.686040	0.097588	0.158170	9516.435547
4640.687140	0.097566	0.158170	9623.757812
4640.688070	0.097639	0.158170	9714.562500
4640.688937	0.097559	0.158170	9799.145508
4640.689974	0.097690	0.158170	9900.450195
4640.690998	0.097544	0.158170	10000.334961
4640.691883	0.097559	0.158170	10086.673828
4640.692843	0.097559	0.158170	10180.330078
4640.693895	0.097639	0.158170	10283.046875
4641.741274	1.017437	0.148208	455.811554
4641.742144	1.477365	0.148208	1741.118652
4641.743199	1.472329	0.148208	3294.425781
4641.744231	1.433053	0.148208	4773.336426
4641.745111	1.398223	0.148208	6003.772461
4641.746074	1.363092	0.148208	7316.430176
4641.747135	1.325405	0.148208	8722.685547
4641.748067	0.711885	0.148208	9386.162109
4641.748935	0.106425	0.148208	9478.539062
4641.750001	0.097467	0.148208	9582.438477
4641.751014	0.097471	0.148208	9681.176758
4641.751908	0.097515	0.148208	9768.354492
4641.752877	0.097474	0.148208	9862.807617
4641.753930	0.097500	0.148208	9965.475586
4641.754846	0.097522	0.148208	10054.805664
4641.755706	0.097427	0.148208	10138.592773
4641.756805	0.097518	0.148208	10245.765625
4641.757793	0.097467	0.148208	10342.063477
4642.747400	1.060422	0.154235	525.969482
4642.748280	1.481250	0.154235	1829.469360
4642.749215	1.474160	0.154235	3207.809082
4642.750285	1.433573	0.154235	4741.732422
4642.751236	1.397021	0.154235	6070.299805
4642.752104	1.364912	0.154235	7255.043457
4642.753166	1.327042	0.154235	8664.362305
4642.754198	0.645846	0.154235	9330.875000
4642.755076	0.103630	0.154235	9421.862305
4642.756047	0.097533	0.154235	9516.566406
4642.757101	0.097723	0.154235	9619.566406
4642.758018	0.097544	0.154235	9709.014648
4642.758877	0.097507	0.154235	9792.773437
4642.759963	0.097643	0.154235	9898.813477
4642.760971	0.097460	0.154235	9997.052734
4642.761840	0.097537	0.154235	10081.812500
4642.762823	0.097632	0.154235	10177.784180
4642.763885	0.097606	0.154235	10281.442383
4643.811284	1.023907	0.135596	450.519257
4643.812162	1.477379	0.135596	1747.658203
4643.813025	1.477386	0.135596	3022.642578
4643.814095	1.438854	0.135596	4562.215820
4643.814983	1.404133	0.135596	5809.085937
4643.815856	1.371226	0.135596	7006.166016
4643.816815	1.337479	0.135596	8288.808594
4643.817775	1.070577	0.135596	9316.562500
4643.818698	0.149663	0.135596	9454.701172
4643.819574	0.097302	0.135596	9539.937500
4643.820610	0.097467	0.135596	9640.913086
4643.821507	0.097412	0.135596	9728.291992
4643.822382	0.097529	0.135596	9813.629883
4643.823306	0.097522	0.135596	9903.740234
4643.824316	0.097405	0.135596	10002.119141
4643.825236	0.097438	0.135596	10091.761719
4643.826098	0.097460	0.135596	10175.772461
4643.827203	0.097419	0.135596	10283.420898
4644.817379	1.046613	0.161099	485.628265
4644.818261	1.479316	0.161099	1790.385376
4644.819252	1.473699	0.161099	3250.820801
4644.820312	1.433306	0.161099	4770.125000
4644.821226	1.397069	0.161099	6047.045898
4644.822094	1.364099	0.161099	7231.083984
4644.823206	1.325991	0.161099	8705.585937
4644.824177	0.675557	0.161099	9361.551758
4644.825100	0.103286	0.161099	9456.884766
4644.825971	0.097419	0.161099	9541.737305
4644.826979	0.097548	0.161099	9640.065430
4644.827874	0.097445	0.161099	9727.278320
4644.828775	0.097551	0.161099	9815.171875
4644.829648	0.097452	0.161099	9900.248047
4644.830692	0.097500	0.161099	10002.038086
4644.831594	0.097529	0.161099	10090.009766
4644.832472	0.097507	0.161099	10175.621094
4644.833444	0.097482	0.161099	10270.373047
4645.880777	1.004044	0.150678	438.767303
4645.881647	1.476581	0.150678	1723.392578
4645.882669	1.473263	0.150678	3229.067383
4645.883728	1.433661	0.150678	4747.314453
4645.884623	1.398424	0.150678	5998.903809
4645.885553	1.364114	0.150678	7267.529297
4645.886635	1.325457	0.150678	8701.672852
4645.887589	0.710028	0.150678	9379.040039
4645.888453	0.106509	0.150678	9471.063477
4645.889510	0.097665	0.150678	9574.294922
4645.890529	0.097493	0.150678	9673.639648
4645.891419	0.097507	0.150678	9760.420898
4645.892389	0.097584	0.150678	9855.077148
4645.893441	0.097606	0.150678	9957.758789
4645.894373	0.097441	0.150678	10048.574219
4645.895234	0.097529	0.150678	10132.546875
4645.896312	0.097606	0.150678	10237.766602
4645.897313	0.097427	0.150678	10335.291016
4646.887367	1.005575	0.158746	436.419525
4646.888237	1.476427	0.158746	1720.911011
4646.889131	1.476965	0.158746	3041.317871
4646.890240	1.436942	0.158746	4634.886719
4646.891132	1.401486	0.158746	5885.011719
4646.892024	1.367666	0.158746	7104.969727
4646.893122	1.329272	0.158746	8564.510742
4646.894093	0.829490	0.158746	9369.945312
4646.894962	0.114122	0.158746	9469.117187
4646.896021	0.097537	0.158746	9572.408203
4646.897040	0.097452	0.158746	9671.711914
4646.897928	0.097416	0.158746	9758.216797
4646.898884	0.097643	0.158746	9851.563477
4646.899930	0.097628	0.158746	9953.682617
4646.900858	0.097507	0.158746	10044.168945
4646.901719	0.097460	0.158746	10128.082031
4646.902786	0.097529	0.158746	10232.145508
4646.903798	0.097365	0.158746	10330.678711
4647.951292	0.998833	0.135322	427.500488
4647.952284	1.477507	0.135322	1893.187744
4647.953358	1.467894	0.135322	3469.706299
4647.954272	1.432306	0.135322	4778.833984
4647.955141	1.397212	0.135322	5993.011230
4647.956258	1.357463	0.135322	7509.297852
4647.957227	1.323303	0.135322	8791.578125
4647.958103	0.723655	0.135322	9425.500000
4647.959172	0.101565	0.135322	9534.073242
4647.960195	0.097551	0.135322	9633.868164
4647.961083	0.097533	0.135322	9720.477539
4647.961996	0.097661	0.135322	9809.642578
4647.963067	0.097625	0.135322	9914.198242
4647.964005	0.097529	0.135322	10005.680664
4647.964864	0.097559	0.135322	10089.483398
4647.965912	0.097709	0.135322	10191.881836
4647.966937	0.097573	0.135322	10291.894531
4647.967816	0.097500	0.135322	10377.596680
4648.952390	1.113889	0.157087	619.322327
4648.953441	1.487135	0.157087	2182.301270
4648.954328	1.467565	0.157087	3484.031250
4648.955276	1.430896	0.157087	4840.520508
4648.956364	1.389441	0.157087	6352.232422
4648.957307	1.355211	0.157087	7630.196289
4648.958168	1.323984	0.157087	8770.146484
4648.959212	0.547240	0.157087	9341.464844
4648.960242	0.098419	0.157087	9442.836914
4648.961130	0.097482	0.157087	9529.400391
4648.962103	0.097617	0.157087	9624.381836
4648.963162	0.097540	0.157087	9727.676758
4648.964075	0.097562	0.157087	9816.750977
4648.964937	0.097489	0.157087	9900.786133
4648.966015	0.097636	0.157087	10006.037109
4648.967011	0.097504	0.157087	10103.150391
4648.967899	0.097573	0.157087	10189.795898
4648.968879	0.097668	0.157087	10285.510742
4650.022956	1.077334	0.151725	576.373718
4650.023908	1.485571	0.151725	1990.637451
4650.024837	1.470524	0.151725	3356.753906
4650.025703	1.436283	0.151725	4600.575195
4650.026745	1.397307	0.151725	6056.569336
4650.027625	1.364235	0.151725	7257.095703
4650.028497	1.333469	0.151725	8419.880859
4650.029464	0.922950	0.151725	9312.374023
4650.030431	0.117887	0.151725	9426.371094
4650.031347	0.097368	0.151725	9515.560547
4650.032221	0.097463	0.151725	9600.743164
4650.033252	0.097452	0.151725	9701.216797
4650.034147	0.097386	0.151725	9788.377930
4650.035014	0.097408	0.151725	9872.831055
4650.035875	0.097379	0.151725	9956.674805
4650.036927	0.097394	0.151725	10059.132812
4650.037809	0.097529	0.151725	10145.153320
4650.038668	0.097482	0.151725	10228.889648
4651.020730	0.991575	0.165022	417.452972
4651.021629	1.474838	0.165022	1743.332031
4651.022735	1.469919	0.165022	3369.062988
4651.023685	1.433756	0.165022	4731.131348
4651.024558	1.399563	0.165022	5952.949707
4651.025623	1.360682	0.165022	7402.076172
4651.026650	1.324263	0.165022	8762.093750
4651.027552	0.716960	0.165022	9408.791992
4651.028508	0.106729	0.165022	9510.824219
4651.029563	0.097562	0.165022	9613.751953
4651.030473	0.097474	0.165022	9702.454102
4651.031329	0.097548	0.165022	9785.955078
4651.032388	0.097595	0.165022	9889.308594
4651.033406	0.097449	0.165022	9988.511719
4651.034281	0.097529	0.165022	10073.849609
4651.035264	0.097588	0.165022	10169.778320
4651.036308	0.097533	0.165022	10271.602539
4651.037213	0.097526	0.165022	10359.863281
4652.092940	1.064883	0.141783	538.830750
4652.093837	1.482385	0.141783	1868.530273
4652.094700	1.474497	0.141783	3141.021240
4652.095819	1.433049	0.141783	4744.603516
4652.096797	1.395121	0.141783	6109.031738
4652.097682	1.362638	0.141783	7314.966309
4652.098726	1.326387	0.141783	8699.713867
4652.099778	0.604717	0.141783	9335.875977
4652.100656	0.101730	0.141783	9425.194336
4652.101550	0.097361	0.141783	9512.235352
4652.102635	0.097592	0.141783	9618.122070
4652.103578	0.097386	0.141783	9709.957031
4652.104436	0.097518	0.141783	9793.627930
4652.105488	0.097562	0.141783	9896.263672
4652.106518	0.097456	0.141783	9996.643555
4652.107397	0.097496	0.141783	10082.342773
4652.108319	0.097526	0.141783	10172.261719
4652.109384	0.097537	0.141783	10276.138672
4653.084144	1.041068	0.155242	491.384125
4653.085034	1.479401	0.155242	1808.050659
4653.086038	1.472889	0.155242	3286.831543
4653.086972	1.436239	0.155242	4628.278809
4653.087900	1.400665	0.155242	5928.096191
4653.088767	1.367347	0.155242	7113.586426
4653.089805	1.330891	0.155242	8495.051758
4653.090710	0.967504	0.155242	9370.642578
4653.091584	0.132627	0.155242	9486.558594
4653.092563	0.097463	0.155242	9581.975586
4653.093511	0.097427	0.155242	9674.335937
4653.094383	0.097412	0.155242	9759.279297
4653.095319	0.097592	0.155242	9850.625000
4653.096373	0.097496	0.155242	9953.385742
4653.097271	0.097423	0.155242	10040.872070
4653.098142	0.097416	0.155242	10125.721680
4653.099185	0.097570	0.155242	10227.486328
4653.100131	0.097540	0.155242	10319.759766
4654.166480	1.023585	0.146726	457.542572
4654.167364	1.477698	0.146726	1763.827393
4654.168371	1.473391	0.146726	3247.532227
4654.169431	1.433426	0.146726	4766.964355
4654.170328	1.397783	0.146726	6020.775879
4654.171192	1.364480	0.146726	7199.686523
4654.172304	1.326511	0.146726	8674.767578
4654.173283	0.717601	0.146726	9377.298828
4654.174141	0.106901	0.146726	9469.019531
4654.175240	0.097581	0.146726	9576.260742
4654.176264	0.097526	0.146726	9676.126953
4654.177143	0.097573	0.146726	9761.893555
4654.178059	0.097518	0.146726	9851.220703
4654.179146	0.097555	0.146726	9957.262695
4654.180072	0.097478	0.146726	10047.527344
4654.180939	0.097507	0.146726	10132.066406
4654.181966	0.097606	0.146726	10232.307617
4654.182987	0.097445	0.146726	10331.798828
4655.154108	0.997156	0.163496	422.794067
4655.155160	1.482429	0.163496	1982.309570
4655.156199	1.466924	0.163496	3506.443359
4655.157095	1.431625	0.163496	4789.179199
4655.158047	1.395784	0.163496	6117.965332
4655.159113	1.356149	0.163496	7563.620117
4655.160056	1.322556	0.163496	8810.791016
4655.160927	0.709567	0.163496	9428.823242
4655.161998	0.101008	0.163496	9537.002930
4655.163007	0.097493	0.163496	9635.373047
4655.163889	0.097511	0.163496	9721.377930
4655.164876	0.097507	0.163496	9817.617187
4655.165923	0.097559	0.163496	9919.760742
4655.166827	0.097504	0.163496	10007.904297
4655.167683	0.097566	0.163496	10091.420898
4655.168770	0.097555	0.163496	10197.462891
4655.169766	0.097493	0.163496	10294.565430
4655.170636	0.097504	0.163496	10379.393555
4656.233933	1.015067	0.141703	445.614471
4656.234796	1.475925	0.141703	1719.338013
4656.235938	1.470084	0.141703	3398.174316
4656.236822	1.435247	0.141703	4666.932129
4656.237693	1.401639	0.141703	5887.760254
4656.238740	1.362290	0.141703	7314.078125
4656.239713	1.327947	0.141703	8606.169922
4656.240602	0.890398	0.141703	9397.733398
4656.241460	0.121677	0.141703	9502.132812
4656.242577	0.097419	0.141703	9610.950195
4656.243473	0.097507	0.141703	9698.316406
4656.244349	0.097460	0.141703	9783.691406
4656.245363	0.097537	0.141703	9882.593750
4656.246354	0.097511	0.141703	9979.227539
4656.247238	0.097551	0.141703	10065.462891
4656.248247	0.097577	0.141703	10163.917969
4656.249297	0.097562	0.141703	10266.358398
4656.250178	0.097603	0.141703	10352.346680
4657.223108	0.999789	0.161288	432.908569
4657.223978	1.475566	0.161288	1716.651367
4657.225030	1.472245	0.161288	3265.453125
4657.226057	1.433218	0.161288	4737.367676
4657.226949	1.398450	0.161288	5984.784668
4657.227900	1.363480	0.161288	7281.454102
4657.228956	1.326211	0.161288	8681.932617
4657.229888	0.756248	0.161288	9386.754883
4657.230747	0.109574	0.161288	9480.878906
4657.231838	0.097482	0.161288	9587.231445
4657.232832	0.097474	0.161288	9684.121094
4657.233711	0.097460	0.161288	9769.788086
4657.234690	0.097496	0.161288	9865.237305
4657.235741	0.097463	0.161288	9967.670898
4657.236636	0.097467	0.161288	10054.904297
4657.237561	0.097544	0.161288	10145.132812
4657.238419	0.097559	0.161288	10228.837891
4657.239445	0.097559	0.161288	10328.932617
4658.302473	1.057284	0.148410	531.813782
4658.303350	1.480946	0.148410	1830.603271
4658.304259	1.473820	0.148410	3170.305176
4658.305363	1.432361	0.148410	4751.631836
4658.306319	1.395656	0.148410	6085.878418
4658.307185	1.363279	0.148410	7266.478027
4658.308247	1.326086	0.148410	8674.781250
4658.309272	0.638818	0.148410	9329.570312
4658.310166	0.102469	0.148410	9421.177734
4658.311120	0.097493	0.148410	9514.185547
4658.312155	0.097504	0.148410	9615.101562
4658.313084	0.097445	0.148410	9705.627930
4658.313945	0.097463	0.148410	9789.543945
4658.315014	0.097489	0.148410	9893.759766
4658.316021	0.097430	0.148410	9991.872070
4658.316908	0.097434	0.148410	10078.295898
4658.317872	0.097511	0.148410	10172.296875
4658.318921	0.097463	0.148410	10274.536133
4659.295256	1.077894	0.163331	545.414551
4659.296205	1.484125	0.163331	1953.848999
4659.297087	1.472673	0.163331	3252.746826
4659.298037	1.436224	0.163331	4617.160156
4659.299096	1.395465	0.163331	6094.957520
4659.299998	1.362323	0.163331	7323.772949
4659.300868	1.330858	0.163331	8481.619141
4659.301927	0.784574	0.163331	9312.483398
4659.302884	0.105377	0.163331	9413.329102
4659.303746	0.097423	0.163331	9497.307617
4659.304793	0.097625	0.163331	9599.520508
4659.305806	0.097401	0.163331	9698.187500
4659.306692	0.097522	0.163331	9784.591797
4659.307632	0.097489	0.163331	9876.231445
4659.308683	0.097511	0.163331	9978.715820
4659.309611	0.097489	0.163331	10069.185547
4659.310472	0.097441	0.163331	10153.083008
4659.311526	0.097555	0.163331	10255.906250
4660.366781	0.996541	0.137416	425.522827
4660.367802	1.478350	0.137416	1934.917725
4660.368852	1.467847	0.137416	3476.156738
4660.369749	1.432537	0.137416	4761.142090
4660.370622	1.397241	0.137416	5980.933594
4660.371734	1.357961	0.137416	7490.986816
4660.372696	1.323739	0.137416	8764.423828
4660.373565	0.762850	0.137416	9427.340820
4660.374616	0.103876	0.137416	9536.514648
4660.375656	0.097500	0.137416	9637.915039
4660.376530	0.097456	0.137416	9723.091797
4660.377456	0.097526	0.137416	9813.400391
4660.378539	0.097570	0.137416	9919.068359
4660.379468	0.097441	0.137416	10009.591797
4660.380337	0.097515	0.137416	10094.332031
4660.381374	0.097595	0.137416	10195.538086
4660.382395	0.097540	0.137416	10295.126953
4660.383288	0.097522	0.137416	10382.213867
4661.369303	1.017297	0.154529	450.662750
4661.370168	1.476453	0.154529	1727.794312
4661.371207	1.472230	0.154529	3257.441406
4661.372253	1.432793	0.154529	4756.142578
4661.373129	1.398512	0.154529	5981.239258
4661.374088	1.362971	0.154529	7288.328613
4661.375145	1.325226	0.154529	8689.091797
4661.376091	0.722919	0.154529	9372.972656
4661.376953	0.107197	0.154529	9465.376953
4661.378016	0.097416	0.154529	9568.929687
4661.379028	0.097548	0.154529	9667.647461
4661.379914	0.097430	0.154529	9753.970703
4661.380887	0.097577	0.154529	9848.913086
4661.381943	0.097434	0.154529	9951.803711
4661.382861	0.097526	0.154529	10041.332031
4661.383724	0.097478	0.154529	10125.455078
4661.384825	0.097636	0.154529	10232.952148
4661.385816	0.097394	0.154529	10329.469727
4662.432718	1.017854	0.153643	444.802185
4662.433586	1.475874	0.153643	1725.860840
4662.434667	1.470842	0.153643	3315.841309
4662.435674	1.432189	0.153643	4758.055664
4662.436556	1.398007	0.153643	5991.097656
4662.437428	1.365886	0.153643	7182.150391
4662.438431	1.330844	0.153643	8516.986328
4662.439351	0.913553	0.153643	9357.455078
4662.440266	0.120311	0.153643	9467.540039
4662.441142	0.097445	0.153643	9552.902344
4662.442168	0.097489	0.153643	9652.925781
4662.443068	0.097504	0.153643	9740.678711
4662.443945	0.097493	0.153643	9826.179687
4662.444894	0.097445	0.153643	9918.655273
4662.445869	0.097467	0.153643	10013.685547
4662.446789	0.097405	0.153643	10103.297852
4662.447660	0.097445	0.153643	10188.172852
4662.448712	0.097533	0.153643	10290.777344
4663.440312	1.016653	0.164950	431.060791
4663.441428	1.484344	0.164950	2087.589355
4663.442387	1.467125	0.164950	3494.562500
4663.443258	1.433500	0.164950	4743.140625
4663.444326	1.392411	0.164950	6230.235352
4663.445366	1.354493	0.164950	7638.908691
4663.446251	1.322974	0.164950	8809.740234
4663.447180	0.668397	0.164950	9430.681641
4663.448039	0.104304	0.164950	9520.279297
4663.449013	0.097423	0.164950	9615.168945
4663.449936	0.097496	0.164950	9705.158203
4663.450819	0.097430	0.164950	9791.189453
4663.451805	0.097577	0.164950	9887.400391
4663.452723	0.097511	0.164950	9976.915039
4663.453641	0.097595	0.164950	10066.507812
4663.454500	0.097522	0.164950	10150.279297
4663.455525	0.097449	0.164950	10250.164062
4663.456407	0.097500	0.164950	10336.159180
4664.499640	0.991761	0.154851	418.523315
4664.500617	1.476581	0.154851	1861.142700
4664.501675	1.468949	0.154851	3415.290527
4664.502597	1.433130	0.154851	4736.636230
4664.503461	1.398299	0.154851	5944.767090
4664.504560	1.358943	0.154851	7438.245117
4664.505550	1.324157	0.154851	8749.160156
4664.506443	0.741310	0.154851	9411.149414
4664.507430	0.106205	0.154851	9515.973633
4664.508481	0.097383	0.154851	9618.323242
4664.509357	0.097467	0.154851	9703.704102
4664.510215	0.097511	0.154851	9787.368164
4664.511312	0.097555	0.154851	9894.385742
4664.512265	0.097386	0.154851	9987.195312
4664.513121	0.097467	0.154851	10070.626953
4664.514187	0.097482	0.154851	10174.541992
4664.515224	0.097511	0.154851	10275.661133
4664.516113	0.097529	0.154851	10362.364258
4665.511433	1.060503	0.165437	530.251526
4665.512352	1.482693	0.165437	1892.846191
4665.513218	1.473885	0.165437	3169.230957
4665.514297	1.433375	0.165437	4715.842773
4665.515286	1.395223	0.165437	6095.718750
4665.516185	1.362034	0.165437	7320.187012
4665.517164	1.328306	0.165437	8620.597656
4665.518216	0.673572	0.165437	9329.195312
4665.519128	0.102843	0.165437	9422.988281
4665.519989	0.097335	0.165437	9506.793945
4665.521062	0.097518	0.165437	9611.430664
4665.522063	0.097427	0.165437	9708.955078
4665.522941	0.097408	0.165437	9794.479492
4665.523925	0.097504	0.165437	9890.422852
4665.524979	0.097489	0.165437	9993.175781
4665.525860	0.097493	0.165437	10079.066406
4665.526729	0.097474	0.165437	10163.771484
4665.527838	0.097522	0.165437	10271.923828
4666.571297	1.079795	0.150089	552.854980
4666.572219	1.483275	0.150089	1920.434692
4666.573086	1.473387	0.150089	3197.861816
4666.574146	1.433361	0.150089	4717.224121
4666.575166	1.394367	0.150089	6139.478027
4666.576043	1.361898	0.150089	7333.862793
4666.577015	1.327888	0.150089	8624.570312
4666.578077	0.658597	0.150089	9324.000977
4666.578977	0.102396	0.150089	9416.157227
4666.579844	0.097485	0.150089	9500.676758
4666.580912	0.097551	0.150089	9604.861328
4666.581899	0.097427	0.150089	9701.021484
4666.582786	0.097500	0.150089	9787.503906
4666.583764	0.097511	0.150089	9882.870117
4666.584822	0.097489	0.150089	9986.013672
4666.585732	0.097452	0.150089	10074.695312
4666.586651	0.097397	0.150089	10164.203125
4666.587516	0.097452	0.150089	10248.499023
4667.576249	0.993098	0.173107	422.066711
4667.577290	1.482074	0.173107	1964.905762
4667.578322	1.466902	0.173107	3478.748535
4667.579216	1.432251	0.173107	4759.180664
4667.580165	1.396373	0.173107	6084.338867
4667.581225	1.356874	0.173107	7522.625000
4667.582169	1.323809	0.173107	8772.300781
4667.583042	0.740471	0.173107	9418.732422
4667.584121	0.101627	0.173107	9528.387695
4667.585113	0.097416	0.173107	9625.024414
4667.585997	0.097496	0.173107	9711.210937
4667.586995	0.097529	0.173107	9808.544922
4667.588040	0.097423	0.173107	9910.351562
4667.588945	0.097456	0.173107	9998.548828
4667.589805	0.097500	0.173107	10082.398437
4667.590888	0.097570	0.173107	10188.066406
4667.591890	0.097544	0.173107	10285.805664
4667.592764	0.097460	0.173107	10370.985352
4668.642241	1.002832	0.151242	432.220612
4668.643106	1.474830	0.151242	1707.948853
4668.644202	1.470531	0.151242	3319.650879
4668.645170	1.433884	0.151242	4707.650879
4668.646037	1.400380	0.151242	5921.779785
4668.647108	1.360847	0.151242	7379.247070
4668.648140	1.324757	0.151242	8746.396484
4668.649028	0.753852	0.151242	9415.817383
4668.649944	0.108834	0.151242	9515.509766
4668.651035	0.097533	0.151242	9621.917969
4668.651966	0.097500	0.151242	9712.690430
4668.652823	0.097504	0.151242	9796.250977
4668.653845	0.097559	0.151242	9895.956055
4668.654881	0.097463	0.151242	9996.927734
4668.655769	0.097460	0.151242	10083.471680
4668.656717	0.097511	0.151242	10175.912109
4668.657766	0.097452	0.151242	10278.139648
4668.658694	0.097463	0.151242	10368.585937
4669.643189	0.994039	0.169188	417.496521
4669.644244	1.482283	0.169188	1981.304687
4669.645189	1.469539	0.169188	3370.018555
4669.646067	1.435884	0.169188	4630.724609
4669.647020	1.399398	0.169188	5964.351074
4669.648067	1.360928	0.169188	7389.242187
4669.648962	1.328273	0.169188	8578.045898
4669.649833	0.938683	0.169188	9395.638672
4669.650888	0.111896	0.169188	9513.688477
4669.651827	0.097372	0.169188	9605.121094
4669.652686	0.097570	0.169188	9688.933594
4669.653726	0.097559	0.169188	9790.394531
4669.654755	0.097570	0.169188	9890.793945
4669.655634	0.097533	0.169188	9976.525391
4669.656579	0.097573	0.169188	10068.732422
4669.657637	0.097540	0.169188	10171.929687
4669.658568	0.097445	0.169188	10262.651367
4669.659425	0.097511	0.169188	10346.218750
4670.713885	1.075616	0.155044	548.564392
4670.714900	1.485820	0.155044	2056.672119
4670.715782	1.470132	0.155044	3353.328613
4670.716793	1.431841	0.155044	4800.919922
4670.717854	1.391517	0.155044	6277.319824
4670.718735	1.358423	0.155044	7474.090332
4670.719610	1.325120	0.155044	8633.570312
4670.720741	0.583879	0.155044	9293.937500
4670.721684	0.099584	0.155044	9387.844727
4670.722555	0.097354	0.155044	9472.639648
4670.723557	0.097665	0.155044	9570.500000
4670.724604	0.097559	0.155044	9672.643555
4670.725494	0.097449	0.155044	9759.373047
4670.726428	0.097566	0.155044	9850.500000
4670.727497	0.097482	0.155044	9954.708008
4670.728439	0.097515	0.155044	10046.566406
4670.729307	0.097551	0.155044	10131.241211
4670.730379	0.097577	0.155044	10235.843750
4671.707150	1.070717	0.167004	533.216858
4671.708144	1.484985	0.167004	2009.292236
4671.709048	1.470121	0.167004	3338.281250
4671.710041	1.432141	0.167004	4760.397461
4671.711113	1.391334	0.167004	6251.907715
4671.712004	1.358287	0.167004	7462.141602
4671.712902	1.325779	0.167004	8652.691406
4671.714007	0.578141	0.167004	9291.537109
4671.714963	0.099360	0.167004	9386.525391
4671.715831	0.097471	0.167004	9471.129883
4671.716878	0.097507	0.167004	9573.219727
4671.717898	0.097441	0.167004	9672.610352
4671.718792	0.097452	0.167004	9759.732422
4671.719742	0.097507	0.167004	9852.364258
4671.720782	0.097456	0.167004	9953.718750
4671.721718	0.097496	0.167004	10044.975586
4671.722576	0.097419	0.167004	10128.561523
4671.723641	0.097533	0.167004	10232.434570
4672.786505	1.087302	0.154359	618.674927
4672.787562	1.486091	0.154359	2189.473389
4672.788452	1.466100	0.154359	3494.302246
4672.789322	1.430761	0.154359	4739.063965
4672.790418	1.389697	0.154359	6262.171875
4672.791410	1.353636	0.154359	7604.979004
4672.792280	1.323351	0.154359	8756.293945
4672.793365	0.500431	0.154359	9299.261719
4672.794398	0.098177	0.154359	9400.678711
4672.795285	0.097401	0.154359	9487.073242
4672.796207	0.097588	0.154359	9577.048828
4672.797273	0.097515	0.154359	9680.999023
4672.798215	0.097438	0.154359	9772.785156
4672.799085	0.097419	0.154359	9857.540039
4672.800147	0.097489	0.154359	9961.073242
4672.801168	0.097614	0.154359	10060.736328
4672.802057	0.097518	0.154359	10147.429687
4672.803013	0.097654	0.154359	10240.787109
4673.776072	1.007259	0.168217	432.114319
4673.776990	1.475497	0.168217	1786.620361
4673.777973	1.472717	0.168217	3234.301514
4673.778859	1.439015	0.168217	4509.268555
4673.779725	1.403394	0.168217	5724.607422
4673.780871	1.363048	0.168217	7286.660645
4673.781771	1.330799	0.168217	8484.379883
4673.782644	1.015411	0.168217	9370.833984
4673.783674	0.121622	0.168217	9496.104492
4673.784648	0.097343	0.168217	9590.916016
4673.785519	0.097390	0.168217	9675.743164
4673.786379	0.097507	0.168217	9759.599609
4673.787496	0.097559	0.168217	9868.572266
4673.788384	0.097430	0.168217	9955.090820
4673.789248	0.097518	0.168217	10039.346680
4673.790278	0.097603	0.168217	10139.876953
4673.791252	0.097467	0.168217	10234.809570
4673.792125	0.097463	0.168217	10319.895508
4674.857495	1.070493	0.150351	542.739990
4674.858379	1.481301	0.150351	1852.210205
4674.859289	1.472706	0.150351	3192.372803
4674.860389	1.431980	0.150351	4767.550781
4674.861340	1.395267	0.150351	6094.450195
4674.862201	1.363114	0.150351	7268.091309
4674.863240	1.325933	0.150351	8645.735352
4674.864280	0.636379	0.150351	9307.570312
4674.865168	0.102700	0.150351	9398.768555
4674.866130	0.097588	0.150351	9492.648437
4674.867182	0.097471	0.150351	9595.187500
4674.868112	0.097511	0.150351	9685.873047
4674.868977	0.097467	0.150351	9770.181641
4674.870054	0.097636	0.150351	9875.334961
4674.871062	0.097555	0.150351	9973.669922
4674.871949	0.097467	0.150351	10060.123047
4674.872916	0.097584	0.150351	10154.487305
4674.873971	0.097632	0.150351	10257.489258
4675.845055	0.996229	0.175198	423.397430
4675.846027	1.475112	0.175198	1857.206665
4675.847080	1.468685	0.175198	3403.732422
4675.848011	1.432819	0.175198	4737.686523
4675.848880	1.398124	0.175198	5952.656250
4675.849969	1.359038	0.175198	7432.648437
4675.850974	1.323545	0.175198	8762.810547
4675.851859	0.734982	0.175198	9413.269531
4675.852842	0.106663	0.175198	9518.119141
4675.853915	0.097573	0.175198	9622.815430
4675.854797	0.097430	0.175198	9708.749023
4675.855661	0.097551	0.175198	9793.033203
4675.856752	0.097504	0.175198	9899.410156
4675.857736	0.097555	0.175198	9995.404297
4675.858625	0.097467	0.175198	10082.052734
4675.859617	0.097650	0.175198	10178.921875
4675.860679	0.097529	0.175198	10282.498047
4675.861568	0.097463	0.175198	10369.142578
4676.924858	0.989938	0.150089	416.763794
4676.925787	1.474197	0.150089	1786.292603
4676.926854	1.469568	0.150089	3354.321533
4676.927806	1.433123	0.150089	4718.654297
4676.928674	1.399490	0.150089	5933.411133
4676.929736	1.360463	0.150089	7378.222656
4676.930760	1.324277	0.150089	8734.283203
4676.931660	0.743046	0.150089	9403.024414
4676.932626	0.107534	0.150089	9506.902344
4676.933690	0.097515	0.150089	9610.658203
4676.934613	0.097489	0.150089	9700.640625
4676.935472	0.097537	0.150089	9784.424805
4676.936560	0.097507	0.150089	9890.512695
4676.937542	0.097562	0.150089	9986.318359
4676.938425	0.097584	0.150089	10072.485352
4676.939423	0.097643	0.150089	10169.932617
4676.940462	0.097581	0.150089	10271.318359
4676.941362	0.097559	0.150089	10359.121094
4677.916714	1.057181	0.166952	568.763550
4677.917660	1.484637	0.166952	1973.230591
4677.918537	1.471589	0.166952	3263.814453
4677.919457	1.435942	0.166952	4584.881348
4677.920549	1.394722	0.166952	6107.917480
4677.921455	1.361173	0.166952	7341.140137
4677.922328	1.330140	0.166952	8502.352539
4677.923377	0.762997	0.166952	9302.736328
4677.924337	0.104231	0.166952	9402.797852
4677.925211	0.097456	0.166952	9487.974609
4677.926139	0.097636	0.166952	9578.580078
4677.927196	0.097489	0.166952	9681.625977
4677.928074	0.097474	0.166952	9767.208008
4677.928933	0.097456	0.166952	9850.922852
4677.929982	0.097548	0.166952	9953.250000
4677.930940	0.097456	0.166952	10046.613281
4677.931806	0.097522	0.166952	10131.067383
4677.932674	0.097559	0.166952	10215.748047
4678.993898	1.039779	0.147189	486.616608
4678.994770	1.478240	0.147189	1775.641602
4678.995747	1.473116	0.147189	3214.876465
4678.996816	1.432280	0.147189	4745.983887
4678.997739	1.396472	0.147189	6034.927734
4678.998616	1.363370	0.147189	7230.603516
4678.999695	1.325834	0.147189	8661.177734
4679.000708	0.657653	0.147189	9327.379883
4679.001601	0.103154	0.147189	9419.497070
4679.002594	0.097566	0.147189	9516.379883
4679.003639	0.097555	0.147189	9618.325195
4679.004541	0.097441	0.147189	9706.217773
4679.005401	0.097478	0.147189	9790.048828
4679.006511	0.097625	0.147189	9898.412109
4679.007473	0.097434	0.147189	9992.143555
4679.008342	0.097504	0.147189	10076.874023
4679.009399	0.097595	0.147189	10180.032227
4679.010433	0.097463	0.147189	10280.809570
4679.984067	0.997489	0.167037	431.912750
4679.984938	1.474790	0.167037	1716.454834
4679.985974	1.472487	0.167037	3241.950928
4679.987010	1.433130	0.167037	4726.673340
4679.987907	1.398039	0.167037	5980.714844
4679.988840	1.363828	0.167037	7253.166504
4679.989899	1.326277	0.167037	8657.693359
4679.990844	0.762393	0.167037	9378.154297
4679.991701	0.109962	0.167037	9472.391602
4679.992762	0.097570	0.167037	9575.913086
4679.993797	0.097511	0.167037	9676.836914
4679.994672	0.097551	0.167037	9762.194336
4679.995640	0.097570	0.167037	9856.641602
4679.996687	0.097588	0.167037	9958.816406
4679.997591	0.097489	0.167037	10046.946289
4679.998457	0.097515	0.167037	10131.393555
4679.999514	0.097603	0.167037	10234.559570
4680.000524	0.097445	0.167037	10332.979492
4681.059859	1.064268	0.154778	537.455139
4681.060797	1.482894	0.154778	1928.409912
4681.061667	1.472139	0.154778	3209.170654
4681.062748	1.432346	0.154778	4757.537109
4681.063771	1.392740	0.154778	6182.310547
4681.064650	1.360008	0.154778	7377.757812
4681.065638	1.324937	0.154778	8686.794922
4681.066704	0.587875	0.154778	9313.469727
4681.067597	0.100778	0.154778	9403.463867
4681.068464	0.097489	0.154778	9487.987305
4681.069569	0.097606	0.154778	9595.841797
4681.070552	0.097478	0.154778	9691.663086
4681.071444	0.097441	0.154778	9778.581055
4681.072427	0.097603	0.154778	9874.524414
4681.073483	0.097555	0.154778	9977.541992
4681.074376	0.097485	0.154778	10064.596680
4681.075260	0.097537	0.154778	10150.819336
4681.076372	0.097698	0.154778	10259.458984
4682.054599	1.008307	0.164978	435.588562
4682.055459	1.474332	0.164978	1703.514160
4682.056557	1.470905	0.164978	3318.567383
4682.057462	1.435807	0.164978	4617.972656
4682.058335	1.402258	0.164978	5842.144043
4682.059339	1.365421	0.164978	7213.026855
4682.060350	1.329188	0.164978	8556.835937
4682.061238	0.930465	0.164978	9383.088867
4682.062102	0.127646	0.164978	9493.375000
4682.063173	0.097540	0.164978	9597.840820
4682.064091	0.097482	0.164978	9687.329102
4682.064968	0.097474	0.164978	9772.814453
4682.065952	0.097636	0.164978	9868.887695
4682.066965	0.097500	0.164978	9967.655273
4682.067855	0.097467	0.164978	10054.401367
4682.068816	0.097595	0.164978	10148.190430
4682.069878	0.097570	0.164978	10251.809570
4682.070802	0.097533	0.164978	10341.929687
4683.131320	0.993223	0.155298	420.133179
4683.132360	1.481191	0.155298	1960.572266
4683.133410	1.466103	0.155298	3499.980957
4683.134302	1.431497	0.155298	4776.875977
4683.135259	1.395077	0.155298	6111.964844
4683.136325	1.355343	0.155298	7556.760742
4683.137261	1.322816	0.155298	8794.916992
4683.138138	0.708794	0.155298	9416.529297
4683.139195	0.101019	0.155298	9523.306641
4683.140208	0.097603	0.155298	9622.177734
4683.141098	0.097533	0.155298	9708.982422
4683.142065	0.097643	0.155298	9803.403320
4683.143126	0.097540	0.155298	9906.893555
4683.144033	0.097562	0.155298	9995.382812
4683.144893	0.097592	0.155298	10079.311523
4683.145965	0.097610	0.155298	10183.949219
4683.146954	0.097551	0.155298	10280.427734
4683.147832	0.097544	0.155298	10366.071289
4684.123149	1.059067	0.169357	535.888062
4684.124029	1.480734	0.169357	1838.933716
4684.124896	1.473179	0.169357	3116.179687
4684.126010	1.432529	0.169357	4712.017090
4684.126981	1.395231	0.169357	6066.786133
4684.127856	1.362660	0.169357	7259.113281
4684.128891	1.326145	0.169357	8631.673828
4684.129946	0.643403	0.169357	9310.463867
4684.130836	0.102495	0.169357	9401.684570
4684.131771	0.097408	0.169357	9492.761719
4684.132827	0.097515	0.169357	9595.737305
4684.133764	0.097434	0.169357	9687.033203
4684.134627	0.097423	0.169357	9771.109375
4684.135689	0.097482	0.169357	9874.634766
4684.136705	0.097507	0.169357	9973.702148
4684.137592	0.097452	0.169357	10060.142578
4684.138552	0.097592	0.169357	10153.830078
4684.139588	0.097452	0.169357	10254.791016
4685.200337	1.012910	0.154923	451.757904
4685.201212	1.476237	0.154923	1743.464966
4685.202258	1.471146	0.154923	3282.283936
4685.203280	1.431870	0.154923	4745.655273
4685.204177	1.397585	0.154923	5999.289551
4685.205148	1.361953	0.154923	7321.746094
4685.206195	1.324567	0.154923	8708.567383
4685.207116	0.739574	0.154923	9389.714844
4685.207983	0.107736	0.154923	9483.122070
4685.209069	0.097368	0.154923	9588.864258
4685.210067	0.097419	0.154923	9686.088867
4685.210958	0.097621	0.154923	9773.069336
4685.211938	0.097621	0.154923	9868.737305
4685.212998	0.097581	0.154923	9972.172852
4685.213903	0.097500	0.154923	10060.410156
4685.214767	0.097478	0.154923	10144.630859
4685.215854	0.097588	0.154923	10250.708984
4685.216811	0.097452	0.154923	10343.970703
4686.193149	1.058628	0.173224	503.906921
4686.194036	1.478979	0.173224	1815.761719
4686.194904	1.475493	0.173224	3096.489746
4686.195881	1.439279	0.173224	4502.665039
4686.196842	1.401486	0.173224	5849.492676
4686.197759	1.367197	0.173224	7103.212402
4686.198639	1.335593	0.173224	8278.534180
4686.199673	1.006414	0.173224	9319.166016
4686.200574	0.135114	0.173224	9440.903320
4686.201446	0.097379	0.173224	9525.818359
4686.202352	0.097562	0.173224	9614.209961
4686.203367	0.097438	0.173224	9713.109375
4686.204246	0.097474	0.173224	9798.789062
4686.205102	0.097489	0.173224	9882.239258
4686.206194	0.097500	0.173224	9988.708984
4686.207087	0.097474	0.173224	10075.753906
4686.207951	0.097427	0.173224	10159.930664
4686.208935	0.097478	0.173224	10255.848633
4687.270840	0.991531	0.154420	420.409027
4687.271856	1.479712	0.154420	1923.796387
4687.272921	1.466646	0.154420	3485.773926
4687.273818	1.431617	0.154420	4769.934570
4687.274746	1.395732	0.154420	6065.174316
4687.275819	1.356119	0.154420	7520.290527
4687.276772	1.323065	0.154420	8781.171875
4687.277643	0.733550	0.154420	9420.093750
4687.278711	0.101250	0.154420	9528.228516
4687.279730	0.097379	0.154420	9627.458008
4687.280616	0.097390	0.154420	9713.746094
4687.281580	0.097504	0.154420	9807.739258
4687.282628	0.097493	0.154420	9909.911133
4687.283550	0.097493	0.154420	9999.799805
4687.284412	0.097434	0.154420	10083.788086
4687.285475	0.097515	0.154420	10187.446289
4687.286479	0.097438	0.154420	10285.273437
4687.287352	0.097463	0.154420	10370.359375
4688.260540	0.992530	0.172862	419.840393
4688.261504	1.474995	0.172862	1841.735596
4688.262563	1.468312	0.172862	3396.677734
4688.263482	1.432899	0.172862	4713.511719
4688.264352	1.398039	0.172862	5929.806152
4688.265447	1.358972	0.172862	7417.880859
4688.266451	1.323486	0.172862	8746.661133
4688.267348	0.730071	0.172862	9401.534180
4688.268342	0.105190	0.172862	9506.093750
4688.269394	0.097566	0.172862	9608.733398
4688.270286	0.097441	0.172862	9695.651367
4688.271147	0.097522	0.172862	9779.618164
4688.272245	0.097555	0.172862	9886.733398
4688.273212	0.097515	0.172862	9981.030273
4688.274073	0.097478	0.172862	10064.958984
4688.275137	0.097636	0.172862	10168.842773
4688.276187	0.097445	0.172862	10271.160156
4688.277064	0.097573	0.172862	10356.731445
4689.339850	1.004846	0.153139	444.142029
4689.340723	1.475914	0.153139	1732.615234
4689.341640	1.474889	0.153139	3085.088379
4689.342731	1.435085	0.153139	4650.766602
4689.343634	1.399713	0.153139	5914.707520
4689.344499	1.367380	0.153139	7097.491699
4689.345564	1.329661	0.153139	8513.580078
4689.346528	0.878324	0.153139	9360.284180
4689.347403	0.118619	0.153139	9464.076172
4689.348309	0.097551	0.153139	9552.458008
4689.349379	0.097603	0.153139	9656.892578
4689.350258	0.097463	0.153139	9742.562500
4689.351118	0.097526	0.153139	9826.434570
4689.352138	0.097489	0.153139	9925.873047
4689.353087	0.097441	0.153139	10018.344727
4689.353954	0.097434	0.153139	10102.820312
4689.355045	0.097548	0.153139	10209.245117
4689.356098	0.097427	0.153139	10311.835937
4690.329103	1.064963	0.175222	541.001404
4690.330002	1.481580	0.175222	1872.941406
4690.330868	1.473201	0.175222	3148.733154
4690.331959	1.432965	0.175222	4712.098145
4690.332932	1.395659	0.175222	6070.074219
4690.333813	1.362935	0.175222	7270.819336
4690.334830	1.327573	0.175222	8620.960937
4690.335888	0.676117	0.175222	9336.292969
4690.336767	0.103993	0.175222	9427.703125
4690.337631	0.097412	0.175222	9511.867187
4690.338487	0.097478	0.175222	9595.308594
4690.339535	0.097346	0.175222	9697.327148
4690.340434	0.097386	0.175222	9784.877930
4690.341309	0.097386	0.175222	9870.090820
4690.342292	0.097562	0.175222	9965.994141
4690.343221	0.097430	0.175222	10056.506836
4690.344142	0.097540	0.175222	10146.341797
4690.345004	0.097478	0.175222	10230.368164
4691.408395	1.064117	0.155415	536.315186
4691.409407	1.485135	0.155415	2039.272217
4691.410298	1.469586	0.155415	3348.673584
4691.411279	1.432441	0.155415	4753.898437
4691.412345	1.391235	0.155415	6236.955078
4691.413256	1.357269	0.155415	7473.427246
4691.414125	1.325735	0.155415	8625.491211
4691.415225	0.610053	0.155415	9296.548828
4691.416206	0.099635	0.155415	9394.291016
4691.417091	0.097427	0.155415	9480.513672
4691.418099	0.097482	0.155415	9578.775391
4691.419153	0.097533	0.155415	9681.575195
4691.420034	0.097449	0.155415	9767.427734
4691.420914	0.097460	0.155415	9853.192383
4691.421997	0.097551	0.155415	9958.840820
4691.422948	0.097452	0.155415	10051.517578
4691.423804	0.097518	0.155415	10134.993164
4691.424824	0.097544	0.155415	10234.488281
4692.400053	0.991505	0.170578	417.423676
4692.401009	1.474442	0.170578	1826.990356
4692.402073	1.468286	0.170578	3389.246582
4692.403015	1.432236	0.170578	4738.413086
4692.403886	1.398208	0.170578	5956.252441
4692.404960	1.358961	0.170578	7415.776855
4692.405970	1.323208	0.170578	8752.216797
4692.406866	0.727537	0.170578	9404.089844
4692.407841	0.106351	0.170578	9507.782227
4692.408875	0.097441	0.170578	9608.537109
4692.409777	0.097357	0.170578	9696.353516
4692.410637	0.097551	0.170578	9780.248047
4692.411726	0.097526	0.170578	9886.453125
4692.412717	0.097390	0.170578	9982.966797
4692.413590	0.097507	0.170578	10068.090820
4692.414609	0.097489	0.170578	10167.431641
4692.415659	0.097507	0.170578	10269.814453
4692.416549	0.097577	0.170578	10356.658203
4693.476800	0.995270	0.163455	423.984924
4693.477833	1.477661	0.163455	1950.408936
4693.478871	1.466960	0.163455	3473.113770
4693.479773	1.431749	0.163455	4764.551758
4693.480641	1.397520	0.163455	5977.598633
4693.481509	1.363766	0.163455	7161.347656
4693.482580	1.327855	0.163455	8583.480469
4693.483485	0.879840	0.163455	9379.735352
4693.484358	0.119524	0.163455	9484.080078
4693.485357	0.097555	0.163455	9581.537109
4693.486290	0.097471	0.163455	9672.477539
4693.487209	0.097434	0.163455	9762.019531
4693.488071	0.097544	0.163455	9846.102539
4693.489115	0.097570	0.163455	9947.964844
4693.489985	0.097526	0.163455	10032.812500
4693.490855	0.097493	0.163455	10117.630859
4693.491818	0.097496	0.163455	10211.519531
4693.492757	0.097493	0.163455	10303.065430
4694.469094	1.049557	0.179867	483.845703
4694.469978	1.478415	0.179867	1790.765015
4694.470965	1.471999	0.179867	3243.628418
4694.472032	1.431500	0.179867	4771.039062
4694.472945	1.395949	0.179867	6045.540039
4694.473808	1.363011	0.179867	7221.818848
4694.474926	1.324475	0.179867	8702.582031
4694.475913	0.667914	0.179867	9361.812500
4694.476776	0.104388	0.179867	9451.899414
4694.477861	0.097518	0.179867	9557.707031
4694.478895	0.097463	0.179867	9658.484375
4694.479787	0.097478	0.179867	9745.434570
4694.480717	0.097540	0.179867	9836.147461
4694.481769	0.097493	0.179867	9938.709961
4694.482703	0.097496	0.179867	10029.771484
4694.483565	0.097445	0.179867	10113.769531
4694.484602	0.097606	0.179867	10214.987305
4694.485618	0.097482	0.179867	10314.028320
4695.542734	1.010640	0.159363	446.702728
4695.543600	1.475266	0.159363	1724.283203
4695.544677	1.470542	0.159363	3308.056885
4695.545686	1.432035	0.159363	4752.979980
4695.546563	1.397413	0.159363	5978.511719
4695.547550	1.361331	0.159363	7322.145020
4695.548607	1.324299	0.159363	8721.929687
4695.549517	0.733989	0.159363	9389.860352
4695.550385	0.107589	0.159363	9483.248047
4695.551497	0.097617	0.159363	9591.798828
4695.552467	0.097478	0.159363	9686.352539
4695.553330	0.097493	0.159363	9770.488281
4695.554412	0.097606	0.159363	9876.098633
4695.555451	0.097515	0.159363	9977.416016
4695.556339	0.097504	0.159363	10063.999023
4695.557253	0.097540	0.159363	10153.150391
4695.558327	0.097617	0.159363	10257.991211
4695.559274	0.097467	0.159363	10350.292969
4696.541763	1.117339	0.173498	625.709717
4696.542697	1.484509	0.173498	2012.241333
4696.543623	1.468938	0.173498	3372.478027
4696.544494	1.434858	0.173498	4622.239746
4696.545543	1.395395	0.173498	6086.009766
4696.546424	1.362737	0.173498	7286.581055
4696.547296	1.331195	0.173498	8447.382812
4696.548296	0.892723	0.173498	9340.106445
4696.549216	0.116378	0.173498	9447.174805
4696.550097	0.097419	0.173498	9533.000977
4696.551037	0.097599	0.173498	9624.744141
4696.552077	0.097427	0.173498	9726.068359
4696.552965	0.097526	0.173498	9812.670898
4696.553827	0.097518	0.173498	9896.731445
4696.554882	0.097636	0.173498	9999.737305
4696.555842	0.097485	0.173498	10093.323242
4696.556719	0.097570	0.173498	10178.891602
4696.557649	0.097489	0.173498	10269.556641
4697.609154	1.002458	0.164785	433.062042
4697.610021	1.474479	0.164785	1711.435181
4697.611087	1.470721	0.164785	3279.224121
4697.612108	1.431797	0.164785	4741.088867
4697.613003	1.396959	0.164785	5991.367187
4697.613989	1.361301	0.164785	7333.610352
4697.615045	1.323981	0.164785	8731.734375
4697.615965	0.716243	0.164785	9390.677734
4697.616825	0.106992	0.164785	9482.691406
4697.617928	0.097566	0.164785	9590.306641
4697.618912	0.097518	0.164785	9686.264648
4697.619799	0.097405	0.164785	9772.663086
4697.620799	0.097599	0.164785	9870.261719
4697.621839	0.097526	0.164785	9971.688477
4697.622719	0.097526	0.164785	10057.510742
4697.623601	0.097559	0.164785	10143.557617
4697.624684	0.097643	0.164785	10249.304687
4697.625637	0.097482	0.164785	10342.205078
4698.614800	1.067095	0.175150	539.949890
4698.615719	1.482246	0.175150	1902.134033
4698.616584	1.473106	0.175150	3176.370361
4698.617664	1.432621	0.175150	4723.601074
4698.618679	1.393396	0.175150	6137.897949
4698.619575	1.360507	0.175150	7356.912109
4698.620557	1.326401	0.175150	8659.438477
4698.621605	0.639086	0.175150	9329.200195
4698.622513	0.101982	0.175150	9421.799805
4698.623368	0.097445	0.175150	9505.115234
4698.624460	0.097559	0.175150	9611.649414
4698.625448	0.097482	0.175150	9707.960937
4698.626324	0.097551	0.175150	9793.416016
4698.627340	0.097606	0.175150	9892.583984
4698.628395	0.097603	0.175150	9995.554687
4698.629271	0.097441	0.175150	10080.913086
4698.630131	0.097518	0.175150	10164.779297
4698.631237	0.097628	0.175150	10272.755859
4699.675116	1.044807	0.163818	492.104126
4699.675996	1.478441	0.163818	1793.132446
4699.676949	1.472992	0.163818	3196.893799
4699.678022	1.432255	0.163818	4733.703125
4699.678957	1.396326	0.163818	6039.267578
4699.679833	1.363282	0.163818	7233.502930
4699.680921	1.325266	0.163818	8675.392578
4699.681925	0.661787	0.163818	9339.827148
4699.682812	0.103612	0.163818	9431.731445
4699.683680	0.097489	0.163818	9516.351562
4699.684680	0.097581	0.163818	9613.931641
4699.685619	0.097515	0.163818	9705.498047
4699.686527	0.097478	0.163818	9794.007812
4699.687389	0.097614	0.163818	9878.150391
4699.688424	0.097489	0.163818	9979.051758
4699.689303	0.097456	0.163818	10064.715820
4699.690174	0.097522	0.163818	10149.657227
4699.691103	0.097592	0.163818	10240.319336
4700.684807	1.055054	0.174187	527.526855
4700.685697	1.480774	0.174187	1845.415649
4700.686565	1.472556	0.174187	3123.594238
4700.687694	1.431650	0.174187	4739.927734
4700.688662	1.394678	0.174187	6089.975586
4700.689536	1.362037	0.174187	7280.396484
4700.690566	1.325746	0.174187	8645.915039
4700.691619	0.636288	0.174187	9315.925781
4700.692511	0.102004	0.174187	9406.914062
4700.693423	0.097500	0.174187	9495.833984
4700.694507	0.097485	0.174187	9601.507812
4700.695453	0.097460	0.174187	9693.705078
4700.696370	0.097485	0.174187	9783.099609
4700.697235	0.097595	0.174187	9867.519531
4700.698274	0.097449	0.174187	9968.768555
4700.699165	0.097522	0.174187	10055.660156
4700.700042	0.097522	0.174187	10141.186523
4700.700943	0.097489	0.174187	10229.024414
4701.743033	1.009728	0.166473	430.144043
4701.744121	1.482649	0.166473	2043.266113
4701.745114	1.465833	0.166473	3498.837891
4701.745989	1.432024	0.166473	4751.858887
4701.746998	1.393224	0.166473	6157.622070
4701.748058	1.354270	0.166473	7593.148437
4701.748956	1.322585	0.166473	8780.830078
4701.749830	0.704084	0.166473	9396.200195
4701.750944	0.100166	0.166473	9507.785156
4701.751905	0.097408	0.166473	9601.394531
4701.752772	0.097438	0.166473	9685.873047
4701.753784	0.097474	0.166473	9784.517578
4701.754830	0.097522	0.166473	9886.525391
4701.755721	0.097427	0.166473	9973.333008
4701.756647	0.097537	0.166473	10063.652344
4701.757714	0.097474	0.166473	10167.657227
4701.758667	0.097438	0.166473	10260.515625
4701.759526	0.097493	0.166473	10344.261719
4702.754315	1.069504	0.175279	536.891174
4702.755251	1.482781	0.175279	1924.773926
4702.756127	1.472626	0.175279	3214.793945
4702.757091	1.436697	0.175279	4599.769531
4702.758132	1.396073	0.175279	6053.081543
4702.759020	1.362594	0.175279	7263.064941
4702.759995	1.328903	0.175279	8558.745117
4702.761047	0.727874	0.175279	9324.467773
4702.761968	0.104865	0.175279	9421.047852
4702.762824	0.097449	0.175279	9504.463867
4702.763896	0.097621	0.175279	9609.113281
4702.764891	0.097460	0.175279	9706.085937
4702.765758	0.097533	0.175279	9790.647461
4702.766724	0.097665	0.175279	9884.991211
4702.767775	0.097482	0.175279	9987.444336
4702.768684	0.097533	0.175279	10076.101562
4702.769550	0.097471	0.175279	10160.510742
4702.770623	0.097518	0.175279	10265.147461
4703.814185	1.087639	0.161457	564.484680
4703.815123	1.483440	0.161457	1955.951416
4703.815993	1.471794	0.161457	3236.412598
4703.817060	1.431533	0.161457	4763.858398
4703.818084	1.392279	0.161457	6189.552246
4703.818957	1.359884	0.161457	7376.730957
4703.819937	1.325376	0.161457	8675.599609
4703.821006	0.604222	0.161457	9321.513672
4703.821906	0.100880	0.161457	9412.305664
4703.822774	0.097460	0.161457	9496.900391
4703.823845	0.097467	0.161457	9601.287109
4703.824848	0.097562	0.161457	9699.141602
4703.825741	0.097515	0.161457	9786.222656
4703.826711	0.097621	0.161457	9880.915039
4703.827763	0.097548	0.161457	9983.535156
4703.828679	0.097449	0.161457	10072.797852
4703.829541	0.097500	0.161457	10156.842773
4703.830639	0.097570	0.161457	10263.974609
4704.822206	0.997317	0.170022	425.854279
4704.823168	1.475138	0.170022	1844.937012
4704.824220	1.468451	0.170022	3389.747314
4704.825147	1.432855	0.170022	4718.003906
4704.826016	1.398197	0.170022	5933.037109
4704.827094	1.359302	0.170022	7398.364258
4704.828093	1.323999	0.170022	8721.039062
4704.828982	0.771046	0.170022	9406.499023
4704.829979	0.108673	0.170022	9514.845703
4704.831017	0.097617	0.170022	9616.171875
4704.831923	0.097562	0.170022	9704.563477
4704.832779	0.097566	0.170022	9788.080078
4704.833870	0.097573	0.170022	9894.532227
4704.834868	0.097456	0.170022	9991.792969
4704.835740	0.097577	0.170022	10076.879883
4704.836733	0.097559	0.170022	10173.755859
4704.837783	0.097548	0.170022	10276.180664
4704.838668	0.097537	0.170022	10362.500977
4705.885631	0.992721	0.163194	423.891876
4705.886498	1.473900	0.163194	1701.763306
4705.887514	1.473036	0.163194	3198.367676
4705.888441	1.437458	0.163194	4530.891602
4705.889320	1.403752	0.163194	5764.790039
4705.890308	1.367347	0.163194	7115.729492
4705.891319	1.331045	0.163194	8461.416016
4705.892214	1.009362	0.163194	9364.794922
4705.893070	0.143679	0.163194	9487.784180
4705.894189	0.097467	0.163194	9596.849609
4705.895092	0.097511	0.163194	9684.902344
4705.895956	0.097526	0.163194	9769.164062
4705.896956	0.097628	0.163194	9866.791992
4705.897968	0.097504	0.163194	9965.465820
4705.898840	0.097496	0.163194	10050.482422
4705.899704	0.097522	0.163194	10134.741211
4705.900784	0.097577	0.163194	10240.124023
4705.901710	0.097394	0.163194	10330.310547
4706.886721	1.103690	0.175971	599.303833
4706.887740	1.485443	0.175971	2112.970215
4706.888629	1.467623	0.175971	3417.687256
4706.889610	1.430665	0.175971	4821.169922
4706.890672	1.389532	0.175971	6296.853516
4706.891593	1.355519	0.175971	7545.286133
4706.892458	1.324226	0.175971	8690.742187
4706.893523	0.581993	0.175971	9310.565430
4706.894532	0.098950	0.175971	9410.406250
4706.895424	0.097537	0.175971	9497.409180
4706.896301	0.097573	0.175971	9582.980469
4706.897277	0.097518	0.175971	9678.158203
4706.898217	0.097467	0.175971	9769.777344
4706.899142	0.097504	0.175971	9859.967773
4706.900003	0.097603	0.175971	9944.003906
4706.901032	0.097522	0.175971	10044.354492
4706.901913	0.097518	0.175971	10130.268555
4706.902781	0.097471	0.175971	10214.873047
4707.958718	0.996086	0.160869	424.332794
4707.959725	1.477068	0.160869	1911.740234
4707.960796	1.467019	0.160869	3482.917480
4707.961667	1.432112	0.160869	4730.287109
4707.962541	1.396586	0.160869	5950.902832
4707.963663	1.355834	0.160869	7472.148437
4707.964637	1.322831	0.160869	8760.585937
4707.965515	0.743086	0.160869	9413.015625
4707.966547	0.102568	0.160869	9518.866211
4707.967579	0.097478	0.160869	9619.463867
4707.968464	0.097482	0.160869	9705.735352
4707.969398	0.097445	0.160869	9796.749023
4707.970462	0.097570	0.160869	9900.563477
4707.971400	0.097471	0.160869	9991.991211
4707.972265	0.097518	0.160869	10076.344727
4707.973325	0.097445	0.160869	10179.636719
4707.974351	0.097537	0.160869	10279.708984
4707.975247	0.097478	0.160869	10367.048828
4708.953117	1.082281	0.180185	548.716736
4708.954153	1.484791	0.180185	2086.960449
4708.955049	1.467854	0.180185	3402.157715
4708.956013	1.431233	0.180185	4781.866211
4708.957086	1.389554	0.180185	6272.857910
4708.958025	1.355464	0.180185	7545.638672
4708.958896	1.323875	0.180185	8698.733398
4708.959972	0.569253	0.180185	9311.250000
4708.960967	0.098939	0.180185	9409.694336
4708.961856	0.097610	0.180185	9496.469727
4708.962830	0.097687	0.180185	9591.616211
4708.963886	0.097507	0.180185	9694.583984
4708.964795	0.097551	0.180185	9783.257812
4708.965656	0.097621	0.180185	9867.309570
4708.966754	0.097764	0.180185	9974.654297
4708.967757	0.097500	0.180185	10072.447266
4708.968633	0.097522	0.180185	10157.876953
4708.969637	0.097698	0.180185	10255.965820
4710.028218	0.993593	0.163153	418.302429
4710.029148	1.473739	0.163153	1788.879639
4710.030222	1.468323	0.163153	3365.858398
4710.031170	1.432328	0.163153	4723.705078
4710.032044	1.397882	0.163153	5945.454102
4710.033104	1.359155	0.163153	7386.158691
4710.034124	1.323629	0.163153	8736.260742
4710.035023	0.738944	0.163153	9400.571289
4710.035992	0.107428	0.163153	9504.668945
4710.037028	0.097496	0.163153	9605.674805
4710.037953	0.097390	0.163153	9695.760742
4710.038813	0.097496	0.163153	9779.607422
4710.039892	0.097584	0.163153	9884.900391
4710.040901	0.097485	0.163153	9983.262695
4710.041781	0.097603	0.163153	10069.153320
4710.042696	0.097452	0.163153	10158.322266
4710.043553	0.097474	0.163153	10241.857422
4710.044521	0.097485	0.163153	10336.223633
4711.023134	1.080073	0.179343	547.597107
4711.024133	1.484652	0.179343	2030.764648
4711.025019	1.469374	0.179343	3332.629883
4711.026016	1.431522	0.179343	4759.857422
4711.027083	1.390737	0.179343	6243.774414
4711.027993	1.357390	0.179343	7478.999512
4711.028858	1.324482	0.179343	8624.676758
4711.029981	0.575054	0.179343	9270.461914
4711.030944	0.099342	0.179343	9366.127930
4711.031813	0.097419	0.179343	9450.785156
4711.032884	0.097617	0.179343	9555.333008
4711.033914	0.097625	0.179343	9655.886719
4711.034797	0.097518	0.179343	9741.995117
4711.035723	0.097559	0.179343	9832.333984
4711.036785	0.097617	0.179343	9936.003906
4711.037743	0.097544	0.179343	10029.451172
4711.038602	0.097485	0.179343	10113.191406
4711.039651	0.097668	0.179343	10215.645508
4712.099890	1.104016	0.159318	587.336548
4712.100858	1.484458	0.159318	2024.291870
4712.101730	1.470275	0.159318	3306.371338
4712.102621	1.435419	0.159318	4585.329590
4712.103724	1.394692	0.159318	6123.675293
4712.104612	1.361404	0.159318	7332.602051
4712.105475	1.330906	0.159318	8481.173828
4712.106540	0.790595	0.159318	9323.157227
4712.107499	0.105421	0.159318	9424.255859
4712.108368	0.097441	0.159318	9508.932617
4712.109227	0.097595	0.159318	9592.766602
4712.110352	0.097559	0.159318	9702.519531
4712.111245	0.097529	0.159318	9789.613281
4712.112109	0.097507	0.159318	9873.859375
4712.113212	0.097566	0.159318	9981.474609
4712.114181	0.097427	0.159318	10075.880859
4712.115045	0.097617	0.159318	10160.221680
4712.116106	0.097540	0.159318	10263.711914
4713.089557	1.076532	0.181563	551.184387
4713.090561	1.484817	0.181563	2041.940430
4713.091449	1.469136	0.181563	3346.532959
4713.092436	1.432119	0.181563	4760.034668
4713.093484	1.391634	0.181563	6218.467773
4713.094393	1.357628	0.181563	7452.551758
4713.095259	1.325713	0.181563	8600.619141
4713.096366	0.624368	0.181563	9291.793945
4713.097369	0.099481	0.181563	9391.573242
4713.098244	0.097372	0.181563	9476.773437
4713.099243	0.097559	0.181563	9574.234375
4713.100295	0.097471	0.181563	9676.773437
4713.101171	0.097365	0.181563	9762.064453
4713.102031	0.097343	0.181563	9845.779297
4713.102899	0.097482	0.181563	9930.393555
4713.103952	0.097430	0.181563	10032.987305
4713.104844	0.097452	0.181563	10119.915039
4713.105720	0.097544	0.181563	10205.363281
4714.167735	0.990297	0.163758	415.924561
4714.168622	1.473146	0.163758	1722.604858
4714.169715	1.469377	0.163758	3328.634277
4714.170678	1.432767	0.163758	4708.389160
4714.171546	1.398955	0.163758	5922.682129
4714.172584	1.360906	0.163758	7335.302246
4714.173617	1.324402	0.163758	8703.409180
4714.174511	0.779886	0.163758	9400.627930
4714.175436	0.110761	0.163758	9503.081055
4714.176524	0.097372	0.163758	9609.021484
4714.177454	0.097471	0.163758	9699.668945
4714.178310	0.097445	0.163758	9783.082031
4714.179342	0.097559	0.163758	9883.762695
4714.180359	0.097419	0.163758	9982.837891
4714.181249	0.097478	0.163758	10069.593750
4714.182198	0.097500	0.163758	10162.121094
4714.183251	0.097537	0.163758	10264.827148
4714.184184	0.097474	0.163758	10355.770508
4715.160096	1.072244	0.180733	546.844299
4715.160976	1.480071	0.180733	1849.306641
4715.161838	1.474134	0.180733	3120.010498
4715.162854	1.435389	0.180733	4578.366211
4715.163838	1.397952	0.180733	5953.950684
4715.164714	1.365505	0.180733	7150.133301
4715.165585	1.332458	0.180733	8310.705078
4715.166722	0.848606	0.180733	9275.570312
4715.167613	0.113734	0.180733	9376.907227
4715.168476	0.096130	0.180733	9459.868164
4715.169560	0.095801	0.180733	9563.715820
4715.170536	0.096702	0.180733	9658.096680
4715.171408	0.097504	0.180733	9743.120117
4715.172453	0.097573	0.180733	9845.083984
4715.173487	0.097551	0.180733	9945.952148
4715.174378	0.097449	0.180733	10032.779297
4715.175299	0.097507	0.180733	10122.583984
4715.176369	0.097515	0.180733	10226.924805
4716.235297	1.047242	0.166589	553.991211
4716.236357	1.484487	0.166589	2127.547852
4716.237282	1.465342	0.166589	3482.989014
4716.238147	1.431174	0.166589	4720.954590
4716.239230	1.390759	0.166589	6227.146973
4716.240250	1.352754	0.166589	7606.956055
4716.241123	1.321967	0.166589	8761.033203
4716.242112	0.610217	0.166589	9364.538086
4716.243175	0.099056	0.166589	9469.834961
4716.244077	0.097478	0.166589	9557.759766
4716.244948	0.097361	0.166589	9642.561523
4716.246038	0.097573	0.166589	9748.916016
4716.247029	0.097456	0.166589	9845.495117
4716.247925	0.097570	0.166589	9932.916992
4716.248911	0.097577	0.166589	10029.127930
4716.249964	0.097456	0.166589	10131.749023
4716.250851	0.097489	0.166589	10218.221680
4716.251761	0.097445	0.166589	10306.896484
4717.230064	1.053215	0.182493	502.383728
4717.230944	1.478005	0.182493	1803.028320
4717.231922	1.472164	0.182493	3242.804932
4717.232978	1.431599	0.182493	4754.573730
4717.233908	1.395542	0.182493	6052.427734
4717.234773	1.362590	0.182493	7231.068359
4717.235871	1.324940	0.182493	8685.852539
4717.236873	0.663457	0.182493	9350.636719
4717.237743	0.103711	0.182493	9440.865234
4717.238733	0.097504	0.182493	9537.393555
4717.239805	0.097449	0.182493	9641.858398
4717.240695	0.097456	0.182493	9728.594727
4717.241557	0.097529	0.182493	9812.665039
4717.242668	0.097500	0.182493	9920.987305
4717.243634	0.097419	0.182493	10015.094727
4717.244496	0.097441	0.182493	10099.088867
4717.245558	0.097617	0.182493	10202.758789
4717.246592	0.097478	0.182493	10303.550781
4718.303244	1.067966	0.169820	524.371460
4718.304127	1.479379	0.169820	1830.662720
4718.304993	1.474431	0.169820	3107.520020
4718.306074	1.434390	0.169820	4658.095215
4718.307015	1.397974	0.169820	5973.588379
4718.307884	1.365004	0.169820	7159.776367
4718.308841	1.331440	0.169820	8433.964844
4718.309904	0.817104	0.169820	9302.546875
4718.310799	0.111899	0.169820	9402.697266
4718.311661	0.097540	0.169820	9486.777344
4718.312715	0.097643	0.169820	9589.693359
4718.313659	0.097566	0.169820	9681.795898
4718.314521	0.097592	0.169820	9765.919922
4718.315574	0.097800	0.169820	9868.903320
4718.316597	0.097581	0.169820	9968.728516
4718.317480	0.097643	0.169820	10054.947266
4718.318431	0.097826	0.169820	10147.979492
4718.319486	0.097731	0.169820	10251.084961
4719.299587	1.053329	0.184644	522.451111
4719.300476	1.480247	0.184644	1838.390381
4719.301341	1.472889	0.184644	3112.439697
4719.302458	1.432086	0.184644	4712.080078
4719.303438	1.394608	0.184644	6078.795898
4719.304310	1.362462	0.184644	7266.862793
4719.305359	1.325544	0.184644	8657.359375
4719.306417	0.616835	0.184644	9309.970703
4719.307309	0.101796	0.184644	9400.772461
4719.308242	0.097698	0.184644	9491.924805
4719.309312	0.097782	0.184644	9596.551758
4719.310261	0.097595	0.184644	9689.169922
4719.311181	0.097621	0.184644	9778.981445
4719.312043	0.097654	0.184644	9863.159180
4719.313089	0.097716	0.184644	9965.370117
4719.313968	0.097628	0.184644	10051.185547
4719.314837	0.097661	0.184644	10136.052734
4719.315764	0.097709	0.184644	10226.628906
4720.372265	1.089653	0.166340	564.440430
4720.373264	1.485128	0.166340	2048.083496
4720.374153	1.469136	0.166340	3354.145020
4720.375167	1.430651	0.166340	4804.824707
4720.376227	1.390217	0.166340	6278.455078
4720.377113	1.356387	0.166340	7480.213867
4720.378000	1.324537	0.166340	8655.078125
4720.379102	0.589281	0.166340	9304.465820
4720.380049	0.099913	0.166340	9399.083984
4720.380909	0.097577	0.166340	9483.000000
4720.381940	0.097749	0.166340	9583.779297
4720.382973	0.097690	0.166340	9684.693359
4720.383842	0.097614	0.166340	9769.519531
4720.384752	0.097793	0.166340	9858.510742
4720.385826	0.097797	0.166340	9963.543945
4720.386770	0.097676	0.166340	10055.750000
4720.387643	0.097610	0.166340	10140.963867
4720.388665	0.097811	0.166340	10240.926758
4721.370057	1.005970	0.181373	439.609100
4721.370926	1.474413	0.181373	1720.873901
4721.371996	1.470172	0.181373	3293.958008
4721.373002	1.431888	0.181373	4734.437500
4721.373900	1.396523	0.181373	5988.515625
4721.374874	1.361843	0.181373	7314.951172
4721.375932	1.324153	0.181373	8715.905273
4721.376851	0.730953	0.181373	9387.651367
4721.377714	0.107992	0.181373	9480.848633
4721.378797	0.097698	0.181373	9586.655273
4721.379803	0.097665	0.181373	9684.906250
4721.380680	0.097625	0.181373	9770.523437
4721.381687	0.097668	0.181373	9868.875977
4721.382735	0.097606	0.181373	9971.166992
4721.383624	0.097603	0.181373	10057.935547
4721.384480	0.097559	0.181373	10141.445312
4721.385594	0.097734	0.181373	10250.321289
4721.386550	0.097449	0.181373	10343.482422
4722.441176	1.019714	0.171568	464.989746
4722.442263	1.483740	0.171568	2077.815430
4722.443223	1.465887	0.171568	3485.067383
4722.444096	1.431892	0.171568	4735.109375
4722.445163	1.391221	0.171568	6219.541992
4722.446185	1.353944	0.171568	7603.272949
4722.447089	1.321681	0.171568	8798.072266
4722.448058	0.626444	0.171568	9405.096680
4722.449094	0.099734	0.171568	9508.420898
4722.450012	0.097672	0.171568	9598.083984
4722.450870	0.097771	0.171568	9681.971680
4722.451930	0.097789	0.171568	9785.627930
4722.452945	0.097742	0.171568	9884.835937
4722.453819	0.097606	0.171568	9970.143555
4722.454795	0.097786	0.171568	10065.582031
4722.455843	0.097764	0.171568	10168.038086
4722.456747	0.097650	0.171568	10256.313477
4722.457604	0.097668	0.171568	10340.015625
4723.439115	1.064513	0.186074	534.385498
4723.440014	1.480942	0.186074	1865.752686
4723.440886	1.472278	0.186074	3149.579102
4723.441998	1.431548	0.186074	4741.460449
4723.442977	1.393634	0.186074	6105.828125
4723.443868	1.361158	0.186074	7318.620117
4723.444878	1.325493	0.186074	8657.368164
4723.445931	0.635424	0.186074	9326.468750
4723.446817	0.102063	0.186074	9416.896484
4723.447705	0.097683	0.186074	9503.638672
4723.448810	0.097738	0.186074	9611.639648
4723.449777	0.097738	0.186074	9706.152344
4723.450643	0.097698	0.186074	9790.758789
4723.451674	0.097822	0.186074	9891.613281
4723.452698	0.097734	0.186074	9991.693359
4723.453576	0.097614	0.186074	10077.398437
4723.454499	0.097727	0.186074	10167.600586
4723.455568	0.097698	0.186074	10272.039062
4724.510143	0.997339	0.167415	424.866333
4724.511013	1.474435	0.167415	1707.624512
4724.511947	1.475456	0.167415	3085.700684
4724.512925	1.438887	0.167415	4492.931641
4724.513859	1.402888	0.167415	5803.229492
4724.514730	1.370175	0.167415	6996.651367
4724.515800	1.333026	0.167415	8422.989258
4724.516686	1.048744	0.167415	9352.176758
4724.517562	0.152267	0.167415	9485.562500
4724.518429	0.097559	0.167415	9570.145508
4724.519469	0.097603	0.167415	9671.652344
4724.520358	0.097661	0.167415	9758.472656
4724.521222	0.097657	0.167415	9842.848633
4724.522322	0.097694	0.167415	9950.312500
4724.523243	0.097540	0.167415	10040.147461
4724.524114	0.097701	0.167415	10125.245117
4724.525100	0.097822	0.167415	10221.698242
4724.526097	0.097646	0.167415	10319.051758
4725.507573	1.027430	0.184270	494.194031
4725.508659	1.483934	0.184270	2105.746826
4725.509609	1.465258	0.184270	3497.741455
4725.510476	1.431540	0.184270	4738.887207
4725.511537	1.391195	0.184270	6214.945312
4725.512557	1.354036	0.184270	7596.061523
4725.513443	1.322655	0.184270	8767.933594
4725.514418	0.651295	0.184270	9402.946289
4725.515462	0.100009	0.184270	9507.355469
4725.516387	0.097672	0.184270	9597.702148
4725.517246	0.097654	0.184270	9681.586914
4725.518300	0.097756	0.184270	9784.622070
4725.519312	0.097694	0.184270	9883.488281
4725.520183	0.097694	0.184270	9968.580078
4725.521161	0.097826	0.184270	10064.253906
4725.522226	0.097676	0.184270	10168.278320
4725.523126	0.097592	0.184270	10256.110352
4725.524038	0.097621	0.184270	10345.140625
4726.580153	0.993948	0.172713	419.445953
4726.581152	1.476595	0.172713	1894.564697
4726.582218	1.466580	0.172713	3457.938477
4726.583121	1.431420	0.172713	4750.510254
4726.583989	1.396238	0.172713	5962.444824
4726.585114	1.356401	0.172713	7488.396484
4726.586086	1.322490	0.172713	8773.857422
4726.586960	0.735194	0.172713	9416.416992
4726.587997	0.102539	0.172713	9522.750000
4726.589026	0.097720	0.172713	9623.303711
4726.589912	0.097738	0.172713	9709.899414
4726.590840	0.097668	0.172713	9800.536133
4726.591903	0.097694	0.172713	9904.384766
4726.592843	0.097573	0.172713	9996.103516
4726.593703	0.097657	0.172713	10080.088867
4726.594746	0.097694	0.172713	10181.983398
4726.595760	0.097683	0.172713	10281.034180
4726.596637	0.097614	0.172713	10366.641602
4727.575559	1.056793	0.187948	524.169434
4727.576441	1.479617	0.187948	1829.191406
4727.577303	1.474779	0.187948	3100.451172
4727.578354	1.435349	0.187948	4609.002930
4727.579320	1.398120	0.187948	5959.586914
4727.580202	1.365355	0.187948	7163.830078
4727.581113	1.332338	0.187948	8377.589844
4727.582200	0.859142	0.187948	9311.476562
4727.583076	0.117411	0.187948	9414.328125
4727.583931	0.097599	0.187948	9497.775391
4727.584974	0.097775	0.187948	9599.753906
4727.585941	0.097610	0.187948	9694.142578
4727.586811	0.097657	0.187948	9779.104492
4727.587675	0.097646	0.187948	9863.470703
4727.588822	0.097679	0.187948	9975.508789
4727.589715	0.097753	0.187948	10062.801758
4727.590587	0.097672	0.187948	10147.971680
4727.591703	0.097771	0.187948	10257.083984
4728.649657	0.994431	0.170722	419.649902
4728.650566	1.473347	0.170722	1758.922485
4728.651667	1.468304	0.170722	3375.525635
4728.652616	1.431958	0.170722	4734.454102
4728.653481	1.398333	0.170722	5944.011719
4728.654535	1.359525	0.170722	7376.951172
4728.655565	1.323516	0.170722	8740.171875
4728.656461	0.740317	0.170722	9403.496094
4728.657425	0.108047	0.170722	9507.653320
4728.658472	0.097617	0.170722	9609.858398
4728.659399	0.097668	0.170722	9700.397461
4728.660256	0.097654	0.170722	9784.086914
4728.661319	0.097661	0.170722	9887.900391
4728.662336	0.097603	0.170722	9987.162109
4728.663204	0.097544	0.170722	10071.830078
4728.664179	0.097720	0.170722	10167.106445
4728.665235	0.097614	0.170722	10270.186523
4728.666150	0.097595	0.170722	10359.486328
4729.645117	1.108389	0.184773	600.746643
4729.646031	1.483220	0.184773	1956.409912
4729.646894	1.470751	0.184773	3225.667725
4729.647982	1.430566	0.184773	4782.124023
4729.648978	1.392151	0.184773	6168.706055
4729.649862	1.359836	0.184773	7370.801758
4729.650867	1.324618	0.184773	8702.042969
4729.651936	0.592214	0.184773	9335.120117
4729.652812	0.101129	0.184773	9423.708984
4729.653678	0.097731	0.184773	9508.343750
4729.654789	0.097833	0.184773	9617.036133
4729.655755	0.097676	0.184773	9711.390625
4729.656624	0.097603	0.184773	9796.207031
4729.657650	0.097701	0.184773	9896.448242
4729.658685	0.097734	0.184773	9997.603516
4729.659579	0.097617	0.184773	10084.873047
4729.660499	0.097789	0.184773	10174.838867
4729.661569	0.097782	0.184773	10279.465820
4730.719684	1.009391	0.171544	441.103851
4730.720559	1.475175	0.171544	1731.881592
4730.721553	1.472948	0.171544	3195.991943
4730.722501	1.436506	0.171544	4557.799805
4730.723434	1.400618	0.171544	5864.576172
4730.724305	1.367311	0.171544	7055.503906
4730.725343	1.331272	0.171544	8437.364258
4730.726227	1.035026	0.171544	9352.327148
4730.727104	0.149319	0.171544	9483.279297
4730.728057	0.097496	0.171544	9576.193359
4730.729017	0.097482	0.171544	9669.775391
4730.729898	0.097540	0.171544	9755.708008
4730.730810	0.097610	0.171544	9844.728516
4730.731896	0.097540	0.171544	9950.657227
4730.732793	0.097456	0.171544	10038.075195
4730.733658	0.097445	0.171544	10122.365234
4730.734694	0.097522	0.171544	10223.398437
4730.735658	0.097441	0.171544	10317.332031
4731.714109	1.115834	0.186763	615.940247
4731.715154	1.485212	0.186763	2167.987305
4731.716051	1.465920	0.186763	3482.917969
4731.716980	1.430013	0.186763	4811.400391
4731.718049	1.388676	0.186763	6295.894531
4731.718994	1.354365	0.186763	7575.769531
4731.719861	1.323424	0.186763	8723.177734
4731.720923	0.573461	0.186763	9332.193359
4731.721939	0.098939	0.186763	9432.715820
4731.722814	0.097482	0.186763	9518.012695
4731.723786	0.097434	0.186763	9612.718750
4731.724833	0.097584	0.186763	9714.889648
4731.725752	0.097438	0.186763	9804.434570
4731.726609	0.097518	0.186763	9888.007812
4731.727660	0.097603	0.186763	9990.587891
4731.728677	0.097485	0.186763	10089.730469
4731.729553	0.097529	0.186763	10175.166016
4731.730424	0.097460	0.186763	10260.053711
4732.788248	1.069541	0.168861	539.048645
4732.789142	1.480734	0.168861	1862.824463
4732.790005	1.472194	0.168861	3133.327637
4732.791134	1.431438	0.168861	4749.420898
4732.792099	1.393942	0.168861	6094.574707
4732.792963	1.361594	0.168861	7270.992187
4732.794013	1.324940	0.168861	8662.179687
4732.795063	0.621742	0.168861	9315.008789
4732.795947	0.102239	0.168861	9405.387695
4732.796871	0.097408	0.168861	9495.393555
4732.797941	0.097511	0.168861	9599.730469
4732.798876	0.097559	0.168861	9690.947266
4732.799734	0.097489	0.168861	9774.592773
4732.800754	0.097614	0.168861	9874.158203
4732.801793	0.097504	0.168861	9975.464844
4732.802681	0.097529	0.168861	10062.071289
4732.803632	0.097496	0.168861	10154.790039
4732.804699	0.097537	0.168861	10258.861328
4733.782461	0.990718	0.187629	418.082886
4733.783370	1.473468	0.187629	1757.465210
4733.784456	1.468022	0.187629	3351.737549
4733.785415	1.431819	0.187629	4724.851562
4733.786284	1.398164	0.187629	5939.855957
4733.787335	1.359020	0.187629	7368.185547
4733.788377	1.322662	0.187629	8746.399414
4733.789280	0.716580	0.187629	9393.470703
4733.790231	0.106718	0.187629	9494.958984
4733.791287	0.097522	0.187629	9597.942383
4733.792215	0.097456	0.187629	9688.381836
4733.793085	0.097456	0.187629	9773.168945
4733.794162	0.097544	0.187629	9878.223633
4733.795154	0.097526	0.187629	9974.968750
4733.796041	0.097489	0.187629	10061.441406
4733.797003	0.097617	0.187629	10155.349609
4733.798061	0.097500	0.187629	10258.504883
4733.798975	0.097419	0.187629	10347.545898
4734.856709	1.031953	0.169631	514.944580
4734.857778	1.483532	0.169631	2100.839844
4734.858713	1.465679	0.169631	3471.249512
4734.859579	1.431398	0.169631	4710.839844
4734.860636	1.391085	0.169631	6181.216797
4734.861662	1.353366	0.169631	7569.770020
4734.862562	1.321740	0.169631	8759.335937
4734.863538	0.627927	0.169631	9372.193359
4734.864608	0.099130	0.169631	9478.261719
4734.865523	0.097496	0.169631	9567.470703
4734.866392	0.097522	0.169631	9652.217773
4734.867479	0.097551	0.169631	9758.255859
4734.868479	0.097452	0.169631	9855.708008
4734.869369	0.097504	0.169631	9942.486328
4734.870355	0.097617	0.169631	10038.737305
4734.871402	0.097555	0.169631	10140.876953
4734.872299	0.097452	0.169631	10228.291992
4734.873214	0.097419	0.169631	10317.430664
4735.853658	1.131489	0.185893	660.789734
4735.854715	1.485571	0.185893	2231.038574
4735.855598	1.464705	0.185893	3524.372803
4735.856503	1.429061	0.185893	4817.673340
4735.857590	1.388243	0.185893	6326.693848
4735.858535	1.353893	0.185893	7606.122559
4735.859404	1.323296	0.185893	8756.066406
4735.860458	0.568253	0.185893	9355.004883
4735.861489	0.098895	0.185893	9456.965820
4735.862367	0.097555	0.185893	9542.619141
4735.863311	0.097581	0.185893	9634.735352
4735.864347	0.097449	0.185893	9735.692383
4735.865286	0.097533	0.185893	9827.275391
4735.866153	0.097551	0.185893	9911.852539
4735.867192	0.097529	0.185893	10013.185547
4735.868204	0.097511	0.185893	10111.866211
4735.869090	0.097460	0.185893	10198.215820
4735.870046	0.097577	0.185893	10291.499023
4736.923063	0.991586	0.168479	416.465973
4736.923965	1.473391	0.168479	1745.464722
4736.924988	1.470762	0.168479	3250.054199
4736.925910	1.435825	0.168479	4573.884766
4736.926788	1.402200	0.168479	5805.016113
4736.927804	1.365267	0.168479	7192.127930
4736.928705	1.331759	0.168479	8392.042969
4736.929631	1.027639	0.168479	9343.636719
4736.930498	0.146814	0.168479	9470.924805
4736.931525	0.097408	0.168479	9570.962891
4736.932415	0.097511	0.168479	9657.748047
4736.933280	0.097555	0.168479	9742.132812
4736.934370	0.097518	0.168479	9848.427734
4736.935295	0.097482	0.168479	9938.598633
4736.936169	0.097482	0.168479	10023.797852
4736.937139	0.097617	0.168479	10118.486328
4736.938157	0.097416	0.168479	10217.655273
4736.939040	0.097445	0.168479	10303.699219
4737.925567	0.997961	0.180830	424.133606
4737.926540	1.474702	0.180830	1859.018799
4737.927607	1.466986	0.180830	3424.292969
4737.928527	1.431127	0.180830	4740.929687
4737.929461	1.395542	0.180830	6044.366211
4737.930330	1.362078	0.180830	7228.011719
4737.931382	1.326317	0.180830	8623.296875
4737.932277	0.853535	0.180830	9387.210937
4737.933142	0.117056	0.180830	9488.463867
4737.934117	0.097504	0.180830	9583.530273
4737.935063	0.097533	0.180830	9675.796875
4737.935973	0.097588	0.180830	9764.601562
4737.936846	0.097478	0.180830	9849.700195
4737.937872	0.097471	0.180830	9949.705078
4737.938766	0.097445	0.180830	10036.821289
4737.939641	0.097522	0.180830	10122.153320
4737.940569	0.097584	0.180830	10212.711914
4737.941556	0.097449	0.180830	10308.893555
4738.988986	0.991029	0.175923	417.223236
4738.989996	1.478243	0.175923	1910.249146
4738.991052	1.466294	0.175923	3458.655518
4738.991948	1.431592	0.175923	4741.361816
4738.992854	1.395740	0.175923	6005.902344
4738.993950	1.356101	0.175923	7492.188965
4738.994908	1.322604	0.175923	8759.243164
4738.995788	0.740614	0.175923	9410.983398
4738.996852	0.101847	0.175923	9519.348633
4738.997855	0.097489	0.175923	9617.129883
4738.998745	0.097489	0.175923	9703.895508
4738.999693	0.097606	0.175923	9796.425781
4739.000727	0.097639	0.175923	9897.384766
4739.001662	0.097507	0.175923	9988.553711
4739.002524	0.097515	0.175923	10072.611328
4739.003581	0.097588	0.175923	10175.761719
4739.004594	0.097500	0.175923	10274.529297
4739.005463	0.097614	0.175923	10359.355469
4739.997213	1.077308	0.183823	547.272644
4739.998157	1.482656	0.183823	1946.900146
4739.999020	1.471586	0.183823	3216.878418
4740.000082	1.431859	0.183823	4737.512695
4740.001108	1.392231	0.183823	6165.942383
4740.001982	1.359792	0.183823	7354.400879
4740.002940	1.326171	0.183823	8624.872070
4740.004014	0.629333	0.183823	9300.776367
4740.004935	0.101210	0.183823	9393.990234
4740.005805	0.097489	0.183823	9478.805664
4740.006880	0.097562	0.183823	9583.685547
4740.007882	0.097496	0.183823	9681.376953
4740.008771	0.097500	0.183823	9768.054687
4740.009761	0.097687	0.183823	9864.764648
4740.010803	0.097559	0.183823	9966.420898
4740.011709	0.097500	0.183823	10054.755859
4740.012569	0.097515	0.183823	10138.618164
4740.013674	0.097559	0.183823	10246.419922
4741.055963	1.025922	0.174473	469.872131
4741.057059	1.483616	0.174473	2095.915039
4741.058012	1.465100	0.174473	3492.155273
4741.058883	1.431416	0.174473	4738.918457
4741.059918	1.391576	0.174473	6179.199707
4741.060958	1.353878	0.174473	7587.233398
4741.061853	1.321915	0.174473	8770.347656
4741.062827	0.658202	0.174473	9411.436523
4741.063882	0.099514	0.174473	9516.423828
4741.064815	0.097434	0.174473	9607.330078
4741.065735	0.097518	0.174473	9697.046875
4741.066597	0.097507	0.174473	9781.098633
4741.067642	0.097507	0.174473	9882.994141
4741.068527	0.097540	0.174473	9969.317383
4741.069403	0.097581	0.174473	10054.797852
4741.070365	0.097632	0.174473	10148.719727
4741.071340	0.097478	0.174473	10243.760742
4741.072252	0.097504	0.174473	10332.683594
4742.069178	1.012024	0.184036	426.062073
4742.070288	1.482579	0.184036	2071.725098
4742.071246	1.466016	0.184036	3476.167969
4742.072178	1.430427	0.184036	4809.326172
4742.073056	1.396278	0.184036	6035.258301
4742.073979	1.362334	0.184036	7292.692383
4742.074935	1.327778	0.184036	8562.048828
4742.075848	0.899615	0.184036	9383.397461
4742.076722	0.122289	0.184036	9490.278320
4742.077749	0.097518	0.184036	9590.429687
4742.078651	0.097610	0.184036	9678.473633
4742.079528	0.097581	0.184036	9764.051758
4742.080524	0.097639	0.184036	9861.300781
4742.081458	0.097639	0.184036	9952.496094
4742.082372	0.097614	0.184036	10041.714844
4742.083238	0.097632	0.184036	10126.263672
4742.084283	0.097603	0.184036	10228.258789
4742.085156	0.097478	0.184036	10313.357422
4743.124438	1.015605	0.177434	450.928833
4743.125306	1.475387	0.177434	1731.564697
4743.126360	1.470348	0.177434	3281.311523
4743.127405	1.430552	0.177434	4776.238281
4743.128283	1.396271	0.177434	6002.164062
4743.129228	1.361847	0.177434	7289.109375
4743.130290	1.324157	0.177434	8695.363281
4743.131229	0.722146	0.177434	9373.458008
4743.132088	0.107417	0.177434	9465.729492
4743.133163	0.097500	0.177434	9570.541992
4743.134176	0.097482	0.177434	9669.291016
4743.135044	0.097537	0.177434	9753.953125
4743.136017	0.097595	0.177434	9848.913086
4743.137079	0.097610	0.177434	9952.575195
4743.137997	0.097515	0.177434	10042.093750
4743.138865	0.097463	0.177434	10126.692383
4743.139926	0.097617	0.177434	10230.264648
4743.140924	0.097522	0.177434	10327.591797
4744.137680	1.010167	0.188528	440.432922
4744.138554	1.475321	0.188528	1729.863525
4744.139564	1.471197	0.188528	3215.772949
4744.140623	1.431493	0.188528	4731.724121
4744.141519	1.397025	0.188528	5983.458496
4744.142470	1.362023	0.188528	7278.742187
4744.143538	1.324145	0.188528	8692.929687
4744.144478	0.716865	0.188528	9366.783203
4744.145343	0.106875	0.188528	9459.230469
4744.146426	0.097566	0.188528	9564.894531
4744.147441	0.097515	0.188528	9663.872070
4744.148334	0.097460	0.188528	9750.903320
4744.149306	0.097507	0.188528	9845.680664
4744.150369	0.097573	0.188528	9949.401367
4744.151283	0.097401	0.188528	10038.425781
4744.152143	0.097485	0.188528	10122.263672
4744.153231	0.097687	0.188528	10228.546875
4744.154222	0.097452	0.188528	10325.122070
4745.193963	1.045682	0.177583	493.562042
4745.194840	1.477687	0.177583	1789.493286
4745.195813	1.471538	0.177583	3221.299805
4745.196902	1.430786	0.177583	4779.425781
4745.197804	1.395245	0.177583	6037.937012
4745.198679	1.361858	0.177583	7229.562500
4745.199782	1.323922	0.177583	8689.848633
4745.200779	0.638987	0.177583	9326.918945
4745.201674	0.102678	0.177583	9418.816406
4745.202652	0.097617	0.177583	9514.286133
4745.203701	0.097548	0.177583	9616.613281
4745.204595	0.097500	0.177583	9703.778320
4745.205457	0.097489	0.177583	9787.813477
4745.206574	0.097526	0.177583	9896.750000
4745.207536	0.097445	0.177583	9990.492187
4745.208401	0.097460	0.177583	10074.794922
4745.209449	0.097570	0.177583	10177.047852
4745.210490	0.097482	0.177583	10278.526367
4746.206222	1.067091	0.190973	539.948059
4746.207228	1.484220	0.190973	2033.073242
4746.208125	1.468451	0.190973	3350.273682
4746.209101	1.431438	0.190973	4747.357422
4746.210163	1.391074	0.190973	6224.678223
4746.211087	1.356383	0.190973	7477.976074
4746.211957	1.325006	0.190973	8630.731445
4746.213052	0.609170	0.190973	9297.772461
4746.214030	0.099609	0.190973	9395.190430
4746.214910	0.097412	0.190973	9480.913086
4746.215903	0.097515	0.190973	9577.745117
4746.216956	0.097515	0.190973	9680.427734
4746.217840	0.097449	0.190973	9766.572266
4746.218701	0.097474	0.190973	9850.498047
4746.219806	0.097599	0.190973	9958.344727
4746.220766	0.097456	0.190973	10051.902344
4746.221622	0.097438	0.190973	10135.308594
4746.222676	0.097551	0.190973	10238.127930
4747.264448	0.992168	0.178308	421.671387
4747.265314	1.473278	0.178308	1697.529785
4747.266335	1.471923	0.178308	3200.362793
4747.267318	1.434939	0.178308	4610.907715
4747.268205	1.400512	0.178308	5853.161133
4747.269068	1.366509	0.178308	7032.458008
4747.270190	1.328961	0.178308	8523.552734
4747.271080	0.954873	0.178308	9373.389648
4747.271936	0.132587	0.178308	9486.883789
4747.273013	0.097412	0.178308	9591.796875
4747.273968	0.097423	0.178308	9684.835937
4747.274837	0.097463	0.178308	9769.531250
4747.275693	0.097551	0.178308	9853.035156
4747.276796	0.097548	0.178308	9960.629883
4747.277689	0.097529	0.178308	10047.723633
4747.278563	0.097430	0.178308	10132.877930
4747.279563	0.097701	0.178308	10230.579102
4747.280563	0.097511	0.178308	10328.089844
4748.273228	1.119650	0.193140	640.439575
4748.274170	1.484297	0.193140	2038.647217
4748.275098	1.467521	0.193140	3400.506348
4748.275966	1.433152	0.193140	4644.482422
4748.277032	1.393129	0.193140	6129.557617
4748.277927	1.360225	0.193140	7346.958496
4748.278809	1.329177	0.193140	8519.292969
4748.279829	0.802559	0.193140	9337.902344
4748.280764	0.108468	0.193140	9439.320312
4748.281634	0.097423	0.193140	9524.078125
4748.282610	0.097599	0.193140	9619.334961
4748.283634	0.097485	0.193140	9719.160156
4748.284509	0.097460	0.193140	9804.437500
4748.285374	0.097529	0.193140	9888.800781
4748.286419	0.097592	0.193140	9990.784180
4748.287362	0.097441	0.193140	10082.671875
4748.288238	0.097529	0.193140	10168.107422
4748.289182	0.097540	0.193140	10260.185547
4749.336593	1.064260	0.177804	535.322876
4749.337483	1.480243	0.177804	1852.739014
4749.338357	1.471981	0.177804	3139.250488
4749.339462	1.431489	0.177804	4721.045898
4749.340431	1.394491	0.177804	6072.307617
4749.341298	1.362470	0.177804	7253.568848
4749.342350	1.325314	0.177804	8647.798828
4749.343401	0.631564	0.177804	9311.572266
4749.344289	0.102206	0.177804	9402.331055
4749.345216	0.097544	0.177804	9492.753906
4749.346270	0.097603	0.177804	9595.626953
4749.347226	0.097544	0.177804	9688.878906
4749.348089	0.097489	0.177804	9773.011719
4749.349141	0.097617	0.177804	9875.705078
4749.350148	0.097551	0.177804	9973.939453
4749.351028	0.097529	0.177804	10059.765625
4749.351980	0.097570	0.177804	10152.652344
4749.353031	0.097661	0.177804	10255.293945
4750.340072	1.044866	0.191146	492.131744
4750.340959	1.478262	0.191146	1803.349854
4750.341926	1.471743	0.191146	3226.525391
4750.342991	1.431013	0.191146	4750.554199
4750.343922	1.395417	0.191146	6049.687988
4750.344790	1.362407	0.191146	7232.257324
4750.345875	1.324834	0.191146	8669.702148
4750.346872	0.675125	0.191146	9342.801758
4750.347756	0.104143	0.191146	9434.864258
4750.348745	0.097423	0.191146	9531.215820
4750.349796	0.097493	0.191146	9633.680664
4750.350692	0.097419	0.191146	9720.968750
4750.351550	0.097467	0.191146	9804.595703
4750.352632	0.097566	0.191146	9910.162109
4750.353616	0.097489	0.191146	10006.090820
4750.354490	0.097405	0.191146	10091.222656
4750.355485	0.097515	0.191146	10188.250000
4750.356534	0.097438	0.191146	10290.461914
4751.406091	1.065143	0.180713	533.636536
4751.407035	1.482404	0.180713	1933.025635
4751.407899	1.471747	0.180713	3204.614746
4751.408975	1.431174	0.180713	4744.558105
4751.410003	1.391634	0.180713	6175.158203
4751.410895	1.359016	0.180713	7387.400391
4751.411859	1.325420	0.180713	8665.105469
4751.412907	0.629000	0.180713	9324.297852
4751.413820	0.101415	0.180713	9416.889648
4751.414682	0.097606	0.180713	9501.026367
4751.415744	0.097529	0.180713	9604.602539
4751.416744	0.097478	0.180713	9702.080078
4751.417621	0.097573	0.180713	9787.651367
4751.418617	0.097617	0.180713	9884.877930
4751.419666	0.097463	0.180713	9987.117187
4751.420551	0.097515	0.180713	10073.417969
4751.421458	0.097467	0.180713	10161.820312
4751.422331	0.097559	0.180713	10246.989258
4752.407993	1.008754	0.194739	426.702789
4752.409079	1.482312	0.194739	2036.493652
4752.410087	1.464272	0.194739	3512.480225
4752.410983	1.430072	0.194739	4793.824707
4752.411980	1.391913	0.194739	6181.561523
4752.413037	1.353461	0.194739	7612.169434
4752.413927	1.322596	0.194739	8789.280273
4752.414827	0.686173	0.194739	9406.835937
4752.415926	0.099741	0.194739	9516.451172
4752.416878	0.097467	0.194739	9609.240234
4752.417742	0.097588	0.194739	9693.556641
4752.418779	0.097687	0.194739	9794.857422
4752.419801	0.097577	0.194739	9894.581055
4752.420688	0.097588	0.194739	9981.141602
4752.421619	0.097584	0.194739	10071.992187
4752.422676	0.097683	0.194739	10175.243164
4752.423616	0.097463	0.194739	10266.858398
4752.424476	0.097555	0.194739	10350.755859
4753.476568	1.028298	0.179013	466.847473
4753.477449	1.476141	0.179013	1767.327881
4753.478311	1.474801	0.179013	3038.606445
4753.479377	1.435653	0.179013	4569.012695
4753.480300	1.400054	0.179013	5861.262207
4753.481189	1.366864	0.179013	7076.404297
4753.482176	1.332297	0.179013	8391.381836
4753.483194	0.914769	0.179013	9322.617187
4753.484083	0.121545	0.179013	9430.670898
4753.485055	0.097489	0.179013	9525.430664
4753.486100	0.097566	0.179013	9627.386719
4753.487009	0.097592	0.179013	9716.097656
4753.487871	0.097551	0.179013	9800.186523
4753.488962	0.097603	0.179013	9906.670898
4753.489942	0.097511	0.179013	10002.231445
4753.490828	0.097570	0.179013	10088.677734
4753.491836	0.097599	0.179013	10187.057617
4753.492881	0.097533	0.179013	10288.979492
4754.475475	1.019381	0.192806	456.682709
4754.476520	1.483605	0.192806	2007.049561
4754.477412	1.469238	0.192806	3317.610107
4754.478292	1.435693	0.192806	4581.020508
4754.479305	1.397867	0.192806	5997.060059
4754.480225	1.362550	0.192806	7250.605957
4754.481145	1.330162	0.192806	8474.355469
4754.482012	0.989323	0.192806	9332.097656
4754.483049	0.116748	0.192806	9453.165039
4754.483951	0.097405	0.192806	9541.024414
4754.484822	0.097438	0.192806	9625.892578
4754.485798	0.097533	0.192806	9721.084961
4754.486749	0.097467	0.192806	9813.776367
4754.487626	0.097408	0.192806	9899.203125
4754.488579	0.097643	0.192806	9992.256836
4754.489608	0.097434	0.192806	10092.516602
4754.490488	0.097540	0.192806	10178.351562
4754.491351	0.097511	0.192806	10262.503906
4755.548197	1.079747	0.179021	575.505310
4755.549260	1.484227	0.179021	2153.239014
4755.550169	1.464979	0.179021	3484.905029
4755.551042	1.430167	0.179021	4733.440918
4755.552159	1.388379	0.179021	6284.260254
4755.553141	1.353036	0.179021	7612.941406
4755.554008	1.322080	0.179021	8759.184570
4755.555063	0.536678	0.179021	9325.380859
4755.556093	0.098617	0.179021	9426.956055
4755.556982	0.097606	0.179021	9513.727539
4755.557904	0.097548	0.179021	9603.666016
4755.558979	0.097588	0.179021	9708.573242
4755.559931	0.097467	0.179021	9801.362305
4755.560793	0.097526	0.179021	9885.429687
4755.561846	0.097676	0.179021	9988.282227
4755.562855	0.097445	0.179021	10086.604492
4755.563738	0.097526	0.179021	10172.719727
4755.564698	0.097592	0.179021	10266.407227
4756.542472	1.058763	0.195626	527.264160
4756.543376	1.480316	0.195626	1865.469971
4756.544243	1.472355	0.195626	3142.001465
4756.545342	1.432013	0.195626	4715.783691
4756.546325	1.393403	0.195626	6085.499023
4756.547218	1.360931	0.195626	7300.810547
4756.548235	1.325695	0.195626	8649.041992
4756.549291	0.637910	0.195626	9322.674805
4756.550167	0.102598	0.195626	9412.550781
4756.551047	0.097614	0.195626	9498.450195
4756.552139	0.097683	0.195626	9605.120117
4756.553096	0.097474	0.195626	9698.403320
4756.553956	0.097493	0.195626	9782.247070
4756.554973	0.097500	0.195626	9881.404297
4756.556026	0.097489	0.195626	9984.060547
4756.556899	0.097471	0.195626	10069.152344
4756.557821	0.097522	0.195626	10159.067383
4756.558879	0.097584	0.195626	10262.311523
4757.616607	1.039852	0.177611	464.814026
4757.617490	1.476647	0.177611	1768.693115
4757.618509	1.470557	0.177611	3267.190430
4757.619515	1.431914	0.177611	4707.695801
4757.620411	1.397820	0.177611	5960.142578
4757.621272	1.364297	0.177611	7134.802246
4757.622385	1.327017	0.177611	8611.771484
4757.623287	0.855132	0.177611	9383.100586
4757.624151	0.117308	0.177611	9484.455078
4757.625139	0.097537	0.177611	9580.821289
4757.626147	0.097515	0.177611	9679.116211
4757.627032	0.097500	0.177611	9765.403320
4757.627894	0.097639	0.177611	9849.568359
4757.628985	0.097555	0.177611	9956.000977
4757.629903	0.097489	0.177611	10045.496094
4757.630764	0.097606	0.177611	10129.535156
4757.631868	0.097573	0.177611	10237.255859
4757.632865	0.097493	0.177611	10334.456055
4758.611897	0.998086	0.192657	421.192291
4758.612903	1.480082	0.192657	1910.154419
4758.613833	1.471113	0.192657	3278.289795
4758.614698	1.437524	0.192657	4521.748535
4758.615729	1.398072	0.192657	5963.161133
4758.616634	1.363876	0.192657	7197.468750
4758.617514	1.332891	0.192657	8370.412109
4758.618400	1.013035	0.192657	9267.960937
4758.619445	0.123021	0.192657	9396.518555
4758.620338	0.097408	0.192657	9483.503906
4758.621214	0.097562	0.192657	9568.968750
4758.622220	0.097621	0.192657	9667.175781
4758.623144	0.097540	0.192657	9757.302734
4758.624064	0.097566	0.192657	9847.063477
4758.624926	0.097610	0.192657	9931.203125
4758.625973	0.097463	0.192657	10033.247070
4758.626850	0.097471	0.192657	10118.728516
4758.627715	0.097537	0.192657	10203.097656
4759.686099	1.014086	0.179851	446.197693
4759.686965	1.474603	0.179851	1723.204102
4759.688000	1.470926	0.179851	3245.612793
4759.689045	1.431540	0.179851	4741.572754
4759.689920	1.396809	0.179851	5963.780762
4759.690831	1.362451	0.179851	7204.973633
4759.691919	1.324808	0.179851	8646.365234
4759.692868	0.748213	0.179851	9356.418945
4759.693740	0.108259	0.179851	9450.821289
4759.694783	0.097511	0.179851	9552.525391
4759.695794	0.097515	0.179851	9651.112305
4759.696682	0.097401	0.179851	9737.604492
4759.697640	0.097577	0.179851	9831.083008
4759.698694	0.097603	0.179851	9933.956055
4759.699620	0.097500	0.179851	10024.241211
4759.700483	0.097485	0.179851	10108.371094
4759.701563	0.097683	0.179851	10213.869141
4759.702564	0.097467	0.179851	10311.433594
4760.681495	1.076587	0.194735	540.446594
4760.682510	1.484015	0.194735	2046.721680
4760.683394	1.468458	0.194735	3344.838867
4760.684388	1.430749	0.194735	4767.003906
4760.685440	1.390214	0.194735	6229.508789
4760.686346	1.356822	0.194735	7458.790039
4760.687213	1.325035	0.194735	8607.595703
4760.688320	0.608774	0.194735	9281.508789
4760.689293	0.099727	0.194735	9378.542969
4760.690156	0.097386	0.194735	9462.587891
4760.691220	0.097731	0.194735	9566.573242
4760.692272	0.097584	0.194735	9669.231445
4760.693161	0.097511	0.194735	9755.918945
4760.694083	0.097570	0.194735	9845.877930
4760.695169	0.097551	0.194735	9951.818359
4760.696117	0.097438	0.194735	10044.189453
4760.696978	0.097628	0.194735	10128.247070
4760.698040	0.097610	0.194735	10231.909180
4761.755151	1.068794	0.180378	532.259399
4761.756076	1.481550	0.180378	1902.693481
4761.756943	1.471897	0.180378	3178.828125
4761.758024	1.431621	0.180378	4726.410645
4761.759036	1.392546	0.180378	6135.667480
4761.759918	1.359683	0.180378	7334.907715
4761.760926	1.325156	0.180378	8670.665039
4761.761981	0.622335	0.180378	9327.228516
4761.762872	0.101561	0.180378	9417.719727
4761.763732	0.097511	0.180378	9501.579102
4761.764805	0.097548	0.180378	9606.248047
4761.765803	0.097460	0.180378	9703.512695
4761.766692	0.097548	0.180378	9790.232422
4761.767677	0.097577	0.180378	9886.345703
4761.768738	0.097636	0.180378	9989.936523
4761.769624	0.097544	0.180378	10076.360352
4761.770481	0.097709	0.180378	10160.096680
4761.771605	0.097639	0.180378	10269.842773
4762.750395	0.993116	0.196939	421.081360
4762.751423	1.478031	0.196939	1940.497314
4762.752390	1.467499	0.196939	3359.568604
4762.753298	1.432950	0.196939	4660.687500
4762.754179	1.397538	0.196939	5891.918457
4762.755288	1.358752	0.196939	7398.774902
4762.756195	1.326138	0.196939	8601.582031
4762.757070	0.902454	0.196939	9391.228516
4762.758107	0.110570	0.196939	9505.889648
4762.759078	0.097394	0.196939	9600.458984
4762.759953	0.097518	0.196939	9685.787109
4762.760809	0.097529	0.196939	9769.272461
4762.761932	0.097452	0.196939	9878.711914
4762.762833	0.097489	0.196939	9966.549805
4762.763692	0.097449	0.196939	10050.257812
4762.764796	0.097723	0.196939	10158.144531
4762.765757	0.097452	0.196939	10251.795898
4762.766615	0.097603	0.196939	10335.539062
4763.824181	1.112472	0.179831	612.972046
4763.825248	1.485084	0.179831	2197.556885
4763.826141	1.464723	0.179831	3505.554443
4763.827042	1.429559	0.179831	4793.587402
4763.828140	1.387925	0.179831	6317.528809
4763.829105	1.352329	0.179831	7622.526367
4763.829978	1.321868	0.179831	8776.516602
4763.831042	0.526296	0.179831	9336.496094
4763.832064	0.098353	0.179831	9437.012695
4763.832955	0.097537	0.179831	9523.917969
4763.833911	0.097570	0.179831	9617.194336
4763.834959	0.097599	0.179831	9719.477539
4763.835880	0.097419	0.179831	9809.201172
4763.836741	0.097423	0.179831	9893.082031
4763.837802	0.097544	0.179831	9996.576172
4763.838807	0.097460	0.179831	10094.523437
4763.839680	0.097592	0.179831	10179.720703
4763.840667	0.097489	0.179831	10275.942383
4764.819396	0.999701	0.197015	428.871674
4764.820331	1.473911	0.197015	1806.978638
4764.821397	1.467777	0.197015	3371.628906
4764.822341	1.431658	0.197015	4723.113770
4764.823212	1.397585	0.197015	5940.410645
4764.824281	1.358866	0.197015	7393.038086
4764.825309	1.322194	0.197015	8752.252930
4764.826193	0.741504	0.197015	9407.742187
4764.827167	0.107446	0.197015	9512.394531
4764.828230	0.097500	0.197015	9616.037109
4764.829138	0.097474	0.197015	9704.543945
4764.830003	0.097515	0.197015	9788.894531
4764.831069	0.097599	0.197015	9892.934570
4764.832069	0.097540	0.197015	9990.474609
4764.832958	0.097533	0.197015	10077.181641
4764.833931	0.097577	0.197015	10172.124023
4764.834980	0.097548	0.197015	10274.451172
4764.835888	0.097460	0.197015	10362.944336
4765.894185	1.058210	0.180475	568.259033
4765.895216	1.484509	0.180475	2098.788086
4765.896116	1.466224	0.180475	3418.390137
4765.896987	1.431940	0.180475	4665.609375
4765.898076	1.391063	0.180475	6180.477539
4765.899023	1.355925	0.180475	7464.538574
4765.899904	1.325504	0.180475	8632.307617
4765.900883	0.754764	0.180475	9371.221680
4765.901910	0.101301	0.180475	9475.257812
4765.902799	0.097383	0.180475	9561.831055
4765.903661	0.097566	0.180475	9645.932617
4765.904751	0.097507	0.180475	9752.215820
4765.905669	0.097515	0.180475	9841.734375
4765.906529	0.097518	0.180475	9925.600586
4765.907591	0.097581	0.180475	10029.231445
4765.908603	0.097467	0.180475	10127.868164
4765.909479	0.097504	0.180475	10213.281250
4765.910466	0.097628	0.180475	10309.640625
4766.889913	1.009211	0.198595	426.896423
4766.891011	1.481382	0.198595	2053.453857
4766.891979	1.465488	0.198595	3472.046387
4766.892853	1.431969	0.198595	4723.587402
4766.893856	1.393110	0.198595	6120.876953
4766.894921	1.354424	0.198595	7563.338379
4766.895821	1.322135	0.198595	8753.259766
4766.896702	0.754962	0.198595	9418.381836
4766.897596	0.109211	0.198595	9516.016602
4766.898625	0.097478	0.198595	9616.321289
4766.899547	0.097507	0.198595	9706.222656
4766.900419	0.097463	0.198595	9791.210937
4766.901431	0.097592	0.198595	9889.973633
4766.902352	0.097577	0.198595	9979.841797
4766.903276	0.097570	0.198595	10069.996094
4766.904136	0.097559	0.198595	10153.896484
4766.905174	0.097537	0.198595	10255.139648
4766.906063	0.097474	0.198595	10341.793945
4767.961117	1.087701	0.179363	564.517029
4767.962051	1.482473	0.179363	1949.146973
4767.962926	1.470960	0.179363	3236.236572
4767.963981	1.430845	0.179363	4745.777832
4767.965009	1.391210	0.179363	6175.941406
4767.965902	1.359042	0.179363	7389.565430
4767.966865	1.324691	0.179363	8665.243164
4767.967928	0.611719	0.179363	9315.500000
4767.968851	0.100745	0.179363	9408.487305
4767.969713	0.097482	0.179363	9492.516602
4767.970815	0.097540	0.179363	9600.005859
4767.971807	0.097478	0.179363	9696.704102
4767.972704	0.097478	0.179363	9784.141602
4767.973708	0.097577	0.179363	9882.108398
4767.974742	0.097507	0.179363	9982.930664
4767.975639	0.097496	0.179363	10070.384766
4767.976497	0.097537	0.179363	10154.071289
4767.977605	0.097606	0.179363	10262.218750
4768.959421	0.994929	0.196758	423.839844
4768.960445	1.479620	0.196758	1938.971069
4768.961490	1.465459	0.196758	3470.375732
4768.962385	1.430929	0.196758	4751.057129
4768.963349	1.394539	0.196758	6095.392090
4768.964408	1.355010	0.196758	7530.347168
4768.965347	1.322098	0.196758	8771.797852
4768.966221	0.726354	0.196758	9406.630859
4768.967300	0.101096	0.196758	9515.713867
4768.968292	0.097573	0.196758	9612.506836
4768.969184	0.097522	0.196758	9699.496094
4768.970167	0.097712	0.196758	9795.547852
4768.971205	0.097566	0.196758	9896.821289
4768.972108	0.097515	0.196758	9984.876953
4768.972966	0.097559	0.196758	10068.582031
4768.974057	0.097573	0.196758	10175.034180
4768.975053	0.097551	0.196758	10272.195312
4768.975933	0.097533	0.196758	10358.024414
4770.029491	0.999305	0.183549	420.707611
4770.030588	1.482242	0.183549	2046.727661
4770.031593	1.464108	0.183549	3518.155762
4770.032488	1.429911	0.183549	4797.925781
4770.033477	1.392067	0.183549	6174.679687
4770.034530	1.353644	0.183549	7600.066406
4770.035440	1.320703	0.183549	8801.906250
4770.036312	0.690439	0.183549	9403.969727
4770.037406	0.100433	0.183549	9513.843750
4770.038369	0.097500	0.183549	9607.736328
4770.039285	0.097416	0.183549	9696.968750
4770.040158	0.097452	0.183549	9782.044922
4770.041184	0.097551	0.183549	9882.132812
4770.042060	0.097441	0.183549	9967.491211
4770.042972	0.097438	0.183549	10056.354492
4770.043844	0.097460	0.183549	10141.339844
4770.044897	0.097522	0.183549	10244.030273
4770.045795	0.097460	0.183549	10331.548828
4771.029433	1.007212	0.199807	427.057800
4771.030526	1.481887	0.199807	2046.760498
4771.031531	1.463815	0.199807	3517.894043
4771.032431	1.429351	0.199807	4804.309570
4771.033434	1.391133	0.199807	6199.615723
4771.034499	1.352725	0.199807	7640.267578
4771.035393	1.321011	0.199807	8821.250977
4771.036294	0.660183	0.199807	9416.076172
4771.037386	0.099470	0.199807	9524.697266
4771.038334	0.097504	0.199807	9617.130859
4771.039205	0.097507	0.199807	9702.059570
4771.040258	0.097679	0.199807	9804.916016
4771.041290	0.097584	0.199807	9905.623047
4771.042185	0.097683	0.199807	9993.049805
4771.043116	0.097606	0.199807	10083.920898
4771.044166	0.097526	0.199807	10186.323242
4771.045094	0.097555	0.199807	10276.854492
4771.045950	0.097606	0.199807	10360.405273
4772.097070	1.088961	0.184213	573.882507
4772.098070	1.484139	0.184213	2058.021973
4772.098952	1.468154	0.184213	3352.934082
4772.099969	1.429922	0.184213	4807.164551
4772.101028	1.389291	0.184213	6278.423340
4772.101911	1.355673	0.184213	7475.482422
4772.102795	1.323428	0.184213	8645.392578
4772.103924	0.544680	0.184213	9260.336914
4772.104885	0.099082	0.184213	9355.554687
4772.105747	0.097397	0.184213	9439.511719
4772.106768	0.097566	0.184213	9539.126953
4772.107817	0.097489	0.184213	9641.392578
4772.108708	0.097489	0.184213	9728.254883
4772.109645	0.097559	0.184213	9819.666992
4772.110714	0.097485	0.184213	9923.878906
4772.111652	0.097606	0.184213	10015.433594
4772.112514	0.097456	0.184213	10099.440430
4772.113572	0.097679	0.184213	10202.785156
4773.101066	1.074935	0.198981	533.167908
4773.101950	1.479393	0.198981	1840.951660
4773.102899	1.471179	0.198981	3237.100586
4773.103957	1.430834	0.198981	4750.922852
4773.104891	1.394392	0.198981	6053.285156
4773.105755	1.362627	0.198981	7230.594727
4773.106836	1.324900	0.198981	8662.811523
4773.107863	0.644832	0.198981	9325.053711
4773.108739	0.103433	0.198981	9415.661133
4773.109723	0.097474	0.198981	9511.576172
4773.110766	0.097573	0.198981	9613.344727
4773.111683	0.097493	0.198981	9702.745117
4773.112541	0.097449	0.198981	9786.356445
4773.113592	0.097650	0.198981	9888.986328
4773.114598	0.097493	0.198981	9987.063477
4773.115484	0.097507	0.198981	10073.455078
4773.116466	0.097727	0.198981	10169.422852
4773.117517	0.097599	0.198981	10271.999023
4774.162994	1.078572	0.188036	585.664429
4774.164035	1.484033	0.188036	2130.542969
4774.164946	1.465309	0.188036	3465.439453
4774.165810	1.430797	0.188036	4701.648437
4774.166911	1.389767	0.188036	6231.781738
4774.167906	1.352593	0.188036	7577.611328
4774.168793	1.322285	0.188036	8750.478516
4774.169820	0.584755	0.188036	9351.021484
4774.170874	0.098936	0.188036	9455.299805
4774.171748	0.097526	0.188036	9540.537109
4774.172626	0.097584	0.188036	9626.215820
4774.173728	0.097679	0.188036	9733.858398
4774.174675	0.097511	0.188036	9826.201172
4774.175544	0.097482	0.188036	9910.913086
4774.176562	0.097709	0.188036	10010.380859
4774.177597	0.097603	0.188036	10111.399414
4774.178477	0.097493	0.188036	10197.193359
4774.179413	0.097566	0.188036	10288.514648
4775.172022	0.990249	0.199968	416.894836
4775.173041	1.477683	0.199968	1922.654053
4775.174102	1.465492	0.199968	3477.541016
4775.174997	1.430625	0.199968	4757.950195
4775.175909	1.394843	0.199968	6030.046387
4775.177013	1.354893	0.199968	7525.847656
4775.177976	1.321113	0.199968	8798.080078
4775.178843	0.712189	0.199968	9415.547852
4775.179902	0.101287	0.199968	9522.810547
4775.180908	0.097489	0.199968	9620.884766
4775.181798	0.097639	0.199968	9707.783203
4775.182746	0.097603	0.199968	9800.310547
4775.183802	0.097712	0.199968	9903.495117
4775.184721	0.097577	0.199968	9993.167969
4775.185577	0.097606	0.199968	10076.718750
4775.186626	0.097701	0.199968	10179.208008
4775.187628	0.097518	0.199968	10276.920898
4775.188495	0.097683	0.199968	10361.612305
4776.230417	1.069764	0.188395	542.370605
4776.231331	1.480895	0.188395	1895.908325
4776.232255	1.470436	0.188395	3254.590820
4776.233138	1.436202	0.188395	4522.757812
4776.234194	1.396622	0.188395	5997.590820
4776.235088	1.362938	0.188395	7216.057617
4776.235969	1.331935	0.188395	8389.492187
4776.236953	0.942246	0.188395	9316.662109
4776.237912	0.121007	0.188395	9432.708008
4776.238831	0.097471	0.188395	9522.283203
4776.239697	0.097540	0.188395	9606.752930
4776.240741	0.097672	0.188395	9708.722656
4776.241619	0.097548	0.188395	9794.369141
4776.242483	0.097445	0.188395	9878.561523
4776.243405	0.097628	0.188395	9968.574219
4776.244408	0.097603	0.188395	10066.469727
4776.245283	0.097518	0.188395	10151.797852
4776.246141	0.097657	0.188395	10235.587891
4777.243722	1.123209	0.197704	637.982849
4777.244649	1.483521	0.197704	2013.206299
4777.245577	1.468154	0.197704	3375.653320
4777.246448	1.433397	0.197704	4624.142090
4777.247492	1.394707	0.197704	6080.216309
4777.248377	1.361796	0.197704	7285.405273
4777.249247	1.331404	0.197704	8443.726562
4777.250246	0.881803	0.197704	9324.647461
4777.251173	0.115532	0.197704	9431.746094
4777.252094	0.097504	0.197704	9521.546875
4777.252968	0.097496	0.197704	9606.758789
4777.253985	0.097540	0.197704	9705.957031
4777.254880	0.097489	0.197704	9793.209961
4777.255743	0.097482	0.197704	9877.336914
4777.256799	0.097584	0.197704	9980.385742
4777.257742	0.097504	0.197704	10072.332031
4777.258620	0.097467	0.197704	10157.908203
4777.259533	0.097537	0.197704	10246.958984
4778.298815	1.022120	0.188451	438.489624
4778.299927	1.482806	0.188451	2087.370361
4778.300898	1.464829	0.188451	3509.719238
4778.301771	1.430614	0.188451	4758.645508
4778.302825	1.390701	0.188451	6224.444336
4778.303856	1.353538	0.188451	7619.941406
4778.304755	1.321285	0.188451	8807.777344
4778.305705	0.652269	0.188451	9427.433594
4778.306754	0.099745	0.188451	9532.066406
4778.307683	0.097485	0.188451	9622.629883
4778.308543	0.097485	0.188451	9706.467773
4778.309596	0.097625	0.188451	9809.266602
4778.310618	0.097434	0.188451	9908.843750
4778.311497	0.097500	0.188451	9994.545898
4778.312455	0.097500	0.188451	10087.951172
4778.313505	0.097529	0.188451	10190.357422
4778.314432	0.097533	0.188451	10280.770508
4778.315292	0.097537	0.188451	10364.652344
4779.313191	1.083527	0.196359	562.350342
4779.314150	1.482814	0.196359	1984.368652
4779.315013	1.470363	0.196359	3253.291504
4779.316064	1.430431	0.196359	4756.674316
4779.317121	1.390375	0.196359	6226.300293
4779.317993	1.357489	0.196359	7410.030762
4779.318943	1.324742	0.196359	8668.536133
4779.320017	0.585813	0.196359	9297.699219
4779.320957	0.099899	0.196359	9391.603516
4779.321822	0.097493	0.196359	9475.934570
4779.322874	0.097676	0.196359	9578.689453
4779.323894	0.097496	0.196359	9678.135742
4779.324781	0.097496	0.196359	9764.615234
4779.325756	0.097595	0.196359	9859.770508
4779.326799	0.097573	0.196359	9961.539062
4779.327715	0.097423	0.196359	10050.778320
4779.328578	0.097529	0.196359	10134.946289
4779.329671	0.097537	0.196359	10241.553711
4780.367803	0.992311	0.187049	417.762848
4780.368701	1.472369	0.187049	1739.950439
4780.369824	1.467008	0.187049	3387.400391
4780.370786	1.430380	0.187049	4763.425781
4780.371656	1.396344	0.187049	5978.245117
4780.372726	1.357467	0.187049	7430.734863
4780.373751	1.321117	0.187049	8784.879883
4780.374652	0.678962	0.187049	9396.625000
4780.375616	0.105077	0.187049	9497.918945
4780.376649	0.097559	0.187049	9598.697266
4780.377569	0.097511	0.187049	9688.407227
4780.378433	0.097518	0.187049	9772.663086
4780.379517	0.097599	0.187049	9878.459961
4780.380514	0.097537	0.187049	9975.704102
4780.381403	0.097577	0.187049	10062.450195
4780.382269	0.097592	0.187049	10146.964844
4780.383257	0.097654	0.187049	10243.447266
4780.384180	0.097518	0.187049	10333.457031
4781.383655	1.040596	0.193515	488.039368
4781.384535	1.477445	0.193515	1788.190918
4781.385499	1.471985	0.193515	3207.184326
4781.386565	1.431090	0.193515	4732.726562
4781.387500	1.395498	0.193515	6037.517090
4781.388369	1.362158	0.193515	7221.232422
4781.389472	1.324039	0.193515	8681.647461
4781.390481	0.638438	0.193515	9325.831055
4781.391375	0.102590	0.193515	9417.546875
4781.392370	0.097566	0.193515	9514.625000
4781.393416	0.097504	0.193515	9616.614258
4781.394312	0.097540	0.193515	9704.010742
4781.395172	0.097581	0.193515	9787.929687
4781.396272	0.097672	0.193515	9895.369141
4781.397225	0.097474	0.193515	9988.262695
4781.398147	0.097584	0.193515	10078.235352
4781.399022	0.097540	0.193515	10163.583008
4781.400045	0.097592	0.193515	10263.418945
4782.436838	1.039680	0.186046	485.530609
4782.437719	1.477167	0.186046	1786.914551
4782.438585	1.474603	0.186046	3063.920898
4782.439657	1.434723	0.186046	4601.943848
4782.440612	1.397827	0.186046	5936.868652
4782.441478	1.365421	0.186046	7119.323242
4782.442558	1.327613	0.186046	8553.145508
4782.443581	0.754508	0.186046	9325.006836
4782.444476	0.107073	0.186046	9420.836914
4782.445440	0.097515	0.186046	9514.840820
4782.446475	0.097610	0.186046	9615.867187
4782.447386	0.097603	0.186046	9704.783203
4782.448246	0.097515	0.186046	9788.645508
4782.449316	0.097548	0.186046	9893.021484
4782.450313	0.097559	0.186046	9990.287109
4782.451185	0.097478	0.186046	10075.288086
4782.452172	0.097614	0.186046	10171.632812
4782.453215	0.097522	0.186046	10273.348633
4783.449635	1.081908	0.195182	553.936890
4783.450551	1.481697	0.195182	1911.171143
4783.451417	1.471370	0.195182	3185.377197
4783.452491	1.431057	0.195182	4722.332520
4783.453498	1.392429	0.195182	6124.508789
4783.454396	1.359902	0.195182	7345.701172
4783.455363	1.325775	0.195182	8627.725586
4783.456430	0.636918	0.195182	9307.316406
4783.457344	0.101375	0.195182	9399.972656
4783.458202	0.097405	0.195182	9483.545898
4783.459280	0.097632	0.195182	9588.792969
4783.460268	0.097416	0.195182	9685.040039
4783.461157	0.097485	0.195182	9771.704102
4783.462160	0.097471	0.195182	9869.466797
4783.463208	0.097456	0.195182	9971.600586
4783.464097	0.097537	0.195182	10058.310547
4783.464954	0.097537	0.195182	10141.899414
4783.466068	0.097621	0.195182	10250.649414
4784.508425	1.034180	0.183960	520.192383
4784.509488	1.483264	0.183960	2096.902344
4784.510429	1.464701	0.183960	3475.186035
4784.511295	1.430940	0.183960	4714.379883
4784.512374	1.389913	0.183960	6214.096191
4784.513391	1.352783	0.183960	7589.876953
4784.514285	1.321362	0.183960	8771.174805
4784.515261	0.612235	0.183960	9368.716797
4784.516304	0.099423	0.183960	9472.415039
4784.517217	0.097540	0.183960	9561.469727
4784.518076	0.097504	0.183960	9645.225586
4784.519156	0.097625	0.183960	9750.660156
4784.520148	0.097438	0.183960	9847.318359
4784.521023	0.097427	0.183960	9932.566406
4784.522017	0.097599	0.183960	10029.580078
4784.523066	0.097544	0.183960	10131.903320
4784.523959	0.097397	0.183960	10218.878906
4784.524814	0.097537	0.183960	10302.272461
4785.517004	1.012024	0.196810	446.302551
4785.517870	1.474043	0.196810	1722.823730
4785.518937	1.469319	0.196810	3290.586914
4785.519947	1.430944	0.196810	4735.839844
4785.520846	1.396249	0.196810	5991.067383
4785.521839	1.360463	0.196810	7342.006836
4785.522873	1.323512	0.196810	8710.518555
4785.523791	0.735264	0.196810	9385.490234
4785.524651	0.108270	0.196810	9478.602539
4785.525724	0.097570	0.196810	9583.294922
4785.526728	0.097581	0.196810	9681.265625
4785.527599	0.097456	0.196810	9766.149414
4785.528597	0.097636	0.196810	9863.589844
4785.529641	0.097592	0.196810	9965.475586
4785.530522	0.097518	0.196810	10051.389648
4785.531391	0.097522	0.196810	10136.136719
4785.532481	0.097657	0.196810	10242.583008
4785.533468	0.097482	0.196810	10338.797852
4786.580428	1.031774	0.186062	452.948639
4786.581359	1.478566	0.186062	1829.493286
4786.582226	1.472479	0.186062	3106.132812
4786.583286	1.434111	0.186062	4626.291016
4786.584177	1.399614	0.186062	5873.347168
4786.585057	1.367604	0.186062	7076.838379
4786.586078	1.331737	0.186062	8436.541992
4786.587015	0.984807	0.186062	9359.306641
4786.587883	0.137574	0.186062	9478.721680
4786.588890	0.097592	0.186062	9576.996094
4786.589899	0.097518	0.186062	9675.391602
4786.590781	0.097566	0.186062	9761.444336
4786.591637	0.097672	0.186062	9845.051758
4786.592704	0.097482	0.186062	9949.064453
4786.593609	0.097434	0.186062	10037.242187
4786.594483	0.097511	0.186062	10122.466797
4786.595445	0.097581	0.186062	10216.338867
4786.596457	0.097566	0.186062	10315.075195
4787.583435	1.002869	0.199622	440.259338
4787.584296	1.473508	0.199622	1708.949951
4787.585352	1.469923	0.199622	3261.188721
4787.586383	1.430834	0.199622	4736.378418
4787.587264	1.396769	0.199622	5966.931641
4787.588244	1.360990	0.199622	7300.702148
4787.589302	1.323387	0.199622	8700.845703
4787.590210	0.738951	0.199622	9371.813477
4787.591136	0.105267	0.199622	9469.291016
4787.592009	0.097551	0.199622	9554.453125
4787.593050	0.097548	0.199622	9656.000000
4787.593935	0.097588	0.199622	9742.365234
4787.594810	0.097625	0.199622	9827.787109
4787.595773	0.097756	0.199622	9921.926758
4787.596733	0.097526	0.199622	10015.551758
4787.597654	0.097372	0.199622	10105.231445
4787.598522	0.097467	0.199622	10189.833008
4787.599563	0.097577	0.199622	10291.410156
4788.650936	1.001473	0.183081	422.621735
4788.652021	1.481975	0.183081	2030.564697
4788.653024	1.464642	0.183081	3499.601074
4788.653916	1.430328	0.183081	4775.454102
4788.654896	1.393041	0.183081	6140.633789
4788.655947	1.354299	0.183081	7564.002441
4788.656853	1.321937	0.183081	8761.677734
4788.657721	0.736132	0.183081	9400.639648
4788.658841	0.100990	0.183081	9513.748047
4788.659804	0.097383	0.183081	9607.527344
4788.660675	0.097562	0.183081	9692.503906
4788.661703	0.097628	0.183081	9792.865234
4788.662754	0.097493	0.183081	9895.330078
4788.663631	0.097449	0.183081	9980.792969
4788.664515	0.097529	0.183081	10067.008789
4788.665618	0.097463	0.183081	10174.510742
4788.666550	0.097588	0.183081	10265.462891
4788.667419	0.097493	0.183081	10350.183594
4789.651506	1.077869	0.199481	586.360535
4789.652573	1.484194	0.199481	2169.995850
4789.653469	1.464727	0.199481	3482.390869
4789.654332	1.429563	0.199481	4716.103516
4789.655456	1.388485	0.199481	6276.760742
4789.656419	1.353171	0.199481	7579.864746
4789.657283	1.323292	0.199481	8723.189453
4789.658366	0.543732	0.199481	9312.050781
4789.659403	0.098470	0.199481	9414.165039
4789.660283	0.097485	0.199481	9499.952148
4789.661223	0.097559	0.199481	9591.657227
4789.662283	0.097621	0.199481	9695.135742
4789.663220	0.097507	0.199481	9786.500000
4789.664080	0.097485	0.199481	9870.337891
4789.665111	0.097584	0.199481	9970.947266
4789.666130	0.097537	0.199481	10070.336914
4789.667017	0.097478	0.199481	10156.799805
4789.667977	0.097639	0.199481	10250.533203
4790.720974	1.017470	0.184076	453.791412
4790.722071	1.482942	0.184076	2080.578613
4790.723037	1.464653	0.184076	3495.433594
4790.723912	1.430852	0.184076	4747.429199
4790.724965	1.390298	0.184076	6211.413086
4790.726006	1.352582	0.184076	7619.450684
4790.726905	1.320634	0.184076	8806.700195
4790.727874	0.625671	0.184076	9412.975586
4790.728923	0.099254	0.184076	9517.092773
4790.729860	0.097496	0.184076	9608.447266
4790.730779	0.097540	0.184076	9698.086914
4790.731638	0.097507	0.184076	9781.845703
4790.732681	0.097595	0.184076	9883.637695
4790.733557	0.097592	0.184076	9969.127930
4790.734421	0.097537	0.184076	10053.399414
4790.735361	0.097628	0.184076	10145.169922
4790.736322	0.097606	0.184076	10238.969727
4790.737237	0.097566	0.184076	10328.242187
4791.719871	1.002012	0.199505	427.859039
4791.720737	1.472820	0.199505	1703.320923
4791.721859	1.467521	0.199505	3349.879150
4791.722841	1.430310	0.199505	4754.443359
4791.723715	1.396659	0.199505	5975.123047
4791.724787	1.356899	0.199505	7429.719238
4791.725838	1.320476	0.199505	8817.539062
4791.726737	0.646018	0.199505	9398.309570
4791.727672	0.103843	0.199505	9495.402344
4791.728733	0.097467	0.199505	9598.814453
4791.729682	0.097555	0.199505	9691.394531
4791.730550	0.097471	0.199505	9775.999023
4791.731606	0.097489	0.199505	9878.947266
4791.732621	0.097412	0.199505	9977.820312
4791.733506	0.097456	0.199505	10064.069336
4791.734472	0.097533	0.199505	10158.286133
4791.735511	0.097500	0.199505	10259.588867
4791.736433	0.097485	0.199505	10349.470703
4792.790468	1.004150	0.185982	430.780518
4792.791419	1.473629	0.185982	1832.201782
4792.792447	1.468553	0.185982	3341.874756
4792.793336	1.434064	0.185982	4616.757324
4792.794198	1.399911	0.185982	5823.480469
4792.795262	1.361488	0.185982	7272.103516
4792.796200	1.328632	0.185982	8518.359375
4792.797080	0.960505	0.185982	9363.604492
4792.798118	0.114261	0.185982	9482.208008
4792.799147	0.097449	0.185982	9582.482422
4792.800031	0.097412	0.185982	9668.594727
4792.800985	0.097548	0.185982	9761.655273
4792.802050	0.097551	0.185982	9865.547852
4792.802977	0.097500	0.185982	9955.930664
4792.803839	0.097548	0.185982	10040.016602
4792.804914	0.097592	0.185982	10144.927734
4792.805917	0.097533	0.185982	10242.752930
4792.806803	0.097416	0.185982	10329.063477
4793.788424	1.059653	0.201261	529.826660
4793.789370	1.481612	0.201261	1931.432007
4793.790283	1.470132	0.201261	3273.662354
4793.791159	1.436492	0.201261	4532.029297
4793.792224	1.396373	0.201261	6019.166992
4793.793131	1.362700	0.201261	7255.135742
4793.794009	1.330411	0.201261	8423.236328
4793.794920	0.951292	0.201261	9289.863281
4793.795965	0.115613	0.201261	9410.678711
4793.796857	0.097445	0.201261	9497.599609
4793.797721	0.097665	0.201261	9581.982422
4793.798714	0.097588	0.201261	9678.886719
4793.799628	0.097518	0.201261	9768.018555
4793.800557	0.097489	0.201261	9858.585937
4793.801421	0.097515	0.201261	9942.838867
4793.802474	0.097493	0.201261	10045.499023
4793.803364	0.097445	0.201261	10132.225586
4793.804241	0.097456	0.201261	10217.694336
4794.860470	1.008142	0.187718	423.419678
4794.861574	1.481960	0.187718	2059.503906
4794.862548	1.465045	0.187718	3486.458008
4794.863419	1.431519	0.187718	4733.310547
4794.864486	1.390690	0.187718	6217.176758
4794.865534	1.352717	0.187718	7634.824219
4794.866425	1.320487	0.187718	8811.377930
4794.867374	0.650189	0.187718	9428.407227
4794.868416	0.099672	0.187718	9532.264648
4794.869351	0.097529	0.187718	9623.454102
4794.870213	0.097485	0.187718	9707.486328
4794.871258	0.097738	0.187718	9809.623047
4794.872277	0.097573	0.187718	9909.049805
4794.873158	0.097482	0.187718	9994.931641
4794.874132	0.097507	0.187718	10089.903320
4794.875179	0.097548	0.187718	10192.036133
4794.876095	0.097577	0.187718	10281.416992
4794.876951	0.097592	0.187718	10364.955078
4795.857946	1.076499	0.202538	543.631958
4795.858947	1.483656	0.202538	2028.771484
4795.859840	1.468308	0.202538	3339.970703
4795.860854	1.430270	0.202538	4790.264160
4795.861902	1.389474	0.202538	6246.432617
4795.862812	1.355790	0.202538	7480.201172
4795.863678	1.324384	0.202538	8627.117187
4795.864781	0.603439	0.202538	9292.709961
4795.865745	0.099584	0.202538	9388.708984
4795.866619	0.097430	0.202538	9473.863281
4795.867650	0.097650	0.202538	9574.541016
4795.868691	0.097518	0.202538	9676.057617
4795.869558	0.097628	0.202538	9760.701172
4795.870428	0.097562	0.202538	9845.580078
4795.871533	0.097533	0.202538	9953.353516
4795.872490	0.097511	0.202538	10046.671875
4795.873358	0.097540	0.202538	10131.336914
4795.874372	0.097555	0.202538	10230.257812
4796.928524	1.059452	0.189390	536.082642
4796.929415	1.480016	0.189390	1854.776733
4796.930280	1.471410	0.189390	3127.546387
4796.931404	1.430424	0.189390	4735.342773
4796.932382	1.392971	0.189390	6097.668457
4796.933253	1.361367	0.189390	7283.418945
4796.934287	1.324581	0.189390	8653.036133
4796.935336	0.625071	0.189390	9308.735352
4796.936225	0.102067	0.189390	9399.472656
4796.937162	0.097566	0.189390	9490.891602
4796.938231	0.097650	0.189390	9595.279297
4796.939176	0.097544	0.189390	9687.458008
4796.940036	0.097460	0.189390	9771.273437
4796.941092	0.097584	0.189390	9874.322266
4796.942115	0.097518	0.189390	9974.083984
4796.942992	0.097489	0.189390	10059.582031
4796.943975	0.097720	0.189390	10155.640625
4796.945013	0.097529	0.189390	10256.875977
4797.927515	1.128237	0.202466	656.634094
4797.928568	1.484791	0.202466	2220.119385
4797.929451	1.464419	0.202466	3513.201172
4797.930402	1.427780	0.202466	4871.019531
4797.931477	1.386976	0.202466	6362.019043
4797.932420	1.351824	0.202466	7636.789062
4797.933280	1.322109	0.202466	8773.802734
4797.934326	0.539403	0.202466	9338.018555
4797.935348	0.098445	0.202466	9438.628906
4797.936238	0.097577	0.202466	9525.472656
4797.937202	0.097570	0.202466	9619.529297
4797.938257	0.097537	0.202466	9722.430664
4797.939165	0.097581	0.202466	9811.034180
4797.940027	0.097548	0.202466	9895.120117
4797.941102	0.097610	0.202466	10000.050781
4797.942093	0.097493	0.202466	10096.666016
4797.942980	0.097504	0.202466	10183.151367
4797.943955	0.097537	0.202466	10278.250000
4798.998530	1.067417	0.189168	516.629822
4798.999417	1.478756	0.189168	1828.286377
4799.000294	1.473666	0.189168	3120.691406
4799.001256	1.437773	0.189168	4503.829102
4799.002221	1.400002	0.189168	5854.831543
4799.003140	1.366392	0.189168	7110.545410
4799.004020	1.334311	0.189168	8284.739258
4799.005061	0.996339	0.189168	9321.927734
4799.005950	0.136143	0.189168	9442.958008
4799.006821	0.097317	0.189168	9527.720703
4799.007716	0.097412	0.189168	9614.904297
4799.008740	0.097511	0.189168	9714.755859
4799.009620	0.097423	0.189168	9800.488281
4799.010475	0.097496	0.189168	9883.847656
4799.011560	0.097606	0.189168	9989.750000
4799.012464	0.097533	0.189168	10077.919922
4799.013342	0.097621	0.189168	10163.630859
4799.014327	0.097727	0.189168	10259.891602
4799.994892	1.062063	0.206075	532.093567
4799.995781	1.479694	0.206075	1847.541016
4799.996644	1.471681	0.206075	3117.601562
4799.997769	1.430892	0.206075	4727.355469
4799.998729	1.394048	0.206075	6065.641602
4799.999605	1.361876	0.206075	7258.645020
4800.000665	1.324669	0.206075	8662.794922
4800.001700	0.631355	0.206075	9316.247070
4800.002588	0.102484	0.206075	9407.252930
4800.003525	0.097493	0.206075	9498.603516
4800.004588	0.097617	0.206075	9602.370117
4800.005513	0.097551	0.206075	9692.605469
4800.006372	0.097562	0.206075	9776.411133
4800.007424	0.097720	0.206075	9879.211914
4800.008442	0.097566	0.206075	9978.534180
4800.009318	0.097610	0.206075	10064.040039
4800.010265	0.097672	0.206075	10156.535156
4800.011322	0.097588	0.206075	10259.685547
4801.066423	0.990685	0.189680	418.069000
4801.067444	1.474951	0.189680	1923.994141
4801.068452	1.466946	0.189680	3402.675537
4801.069334	1.432903	0.189680	4666.496094
4801.070195	1.398127	0.189680	5870.283691
4801.071268	1.359910	0.189680	7329.466797
4801.072190	1.327189	0.189680	8553.134766
4801.073065	0.915194	0.189680	9353.929687
4801.074156	0.107501	0.189680	9471.213867
4801.075157	0.097460	0.189680	9568.771484
4801.076050	0.097606	0.189680	9655.933594
4801.077028	0.097551	0.189680	9751.338867
4801.078078	0.097562	0.189680	9853.779297
4801.078979	0.097489	0.189680	9941.617187
4801.079839	0.097559	0.189680	10025.517578
4801.080941	0.097562	0.189680	10133.031250
4801.081920	0.097463	0.189680	10228.448242
4801.082789	0.097526	0.189680	10313.198242
4802.064876	1.043390	0.205330	491.436646
4802.065759	1.477463	0.205330	1796.036743
4802.066723	1.471469	0.205330	3214.532471
4802.067794	1.430515	0.205330	4746.614258
4802.068720	1.394802	0.205330	6038.201172
4802.069591	1.362037	0.205330	7224.535645
4802.070688	1.323684	0.205330	8676.617187
4802.071692	0.650317	0.205330	9329.536133
4802.072577	0.103169	0.205330	9420.840820
4802.073451	0.097441	0.205330	9506.004883
4802.074457	0.097559	0.205330	9604.148437
4802.075405	0.097419	0.205330	9696.501953
4802.076333	0.097526	0.205330	9787.005859
4802.077193	0.097518	0.205330	9870.872070
4802.078231	0.097599	0.205330	9972.179687
4802.079114	0.097493	0.205330	10058.265625
4802.079977	0.097577	0.205330	10142.474609
4802.080930	0.097584	0.205330	10235.472656
4803.135444	1.024794	0.190659	451.934052
4803.136311	1.474497	0.190659	1730.322998
4803.137418	1.467781	0.190659	3355.156250
4803.138382	1.431024	0.190659	4734.663574
4803.139247	1.397238	0.190659	5943.273926
4803.140328	1.357903	0.190659	7411.166992
4803.141375	1.321600	0.190659	8794.882812
4803.142265	0.688001	0.190659	9407.203125
4803.143187	0.105223	0.190659	9504.218750
4803.144257	0.097504	0.190659	9608.547852
4803.145190	0.097419	0.190659	9699.440430
4803.146054	0.097584	0.190659	9783.752930
4803.147071	0.097603	0.190659	9883.014648
4803.148098	0.097537	0.190659	9983.184570
4803.148986	0.097485	0.190659	10069.751953
4803.149939	0.097650	0.190659	10162.812500
4803.150985	0.097548	0.190659	10264.847656
4803.151923	0.097474	0.190659	10356.278320
4804.132796	0.994186	0.207384	422.528931
4804.133833	1.475643	0.207384	1952.771118
4804.134843	1.465957	0.207384	3433.387695
4804.135722	1.432020	0.207384	4692.133301
4804.136591	1.397066	0.207384	5906.183105
4804.137694	1.357899	0.207384	7403.945801
4804.138612	1.325116	0.207384	8620.402344
4804.139497	0.869396	0.207384	9389.817383
4804.140489	0.115063	0.207384	9503.959961
4804.141493	0.097485	0.207384	9601.834961
4804.142383	0.097526	0.207384	9688.632812
4804.143372	0.097592	0.207384	9785.150391
4804.144434	0.097489	0.207384	9888.683594
4804.145335	0.097496	0.207384	9976.527344
4804.146194	0.097540	0.207384	10060.314453
4804.147305	0.097544	0.207384	10168.685547
4804.148262	0.097489	0.207384	10261.982422
4804.149140	0.097423	0.207384	10347.519531
4805.204946	1.010164	0.190083	449.522766
4805.205811	1.474332	0.190083	1724.820068
4805.206850	1.469550	0.190083	3251.682129
4805.207909	1.430314	0.190083	4766.384277
4805.208791	1.395586	0.190083	5997.291016
4805.209758	1.360463	0.190083	7312.858398
4805.210807	1.323131	0.190083	8700.823242
4805.211734	0.724530	0.190083	9372.462891
4805.212603	0.106816	0.190083	9465.286133
4805.213665	0.097676	0.190083	9569.017578
4805.214674	0.097482	0.190083	9667.376953
4805.215563	0.097452	0.190083	9754.011719
4805.216536	0.097676	0.190083	9849.049805
4805.217595	0.097639	0.190083	9952.449219
4805.218505	0.097467	0.190083	10041.144531
4805.219370	0.097515	0.190083	10125.495117
4805.220474	0.097522	0.190083	10233.159180
4805.221444	0.097489	0.190083	10327.723633
4806.203949	1.096904	0.205088	574.777832
4806.204883	1.482437	0.205088	1959.373535
4806.205745	1.470656	0.205088	3227.078613
4806.206812	1.430823	0.205088	4753.766602
4806.207834	1.391320	0.205088	6175.695312
4806.208716	1.358643	0.205088	7374.018066
4806.209695	1.324955	0.205088	8671.148437
4806.210750	0.619907	0.205088	9325.150391
4806.211671	0.101078	0.205088	9418.243164
4806.212527	0.097522	0.205088	9501.721680
4806.213599	0.097599	0.205088	9606.347656
4806.214617	0.097478	0.205088	9705.580078
4806.215492	0.097518	0.205088	9790.908203
4806.216474	0.097581	0.205088	9886.732422
4806.217544	0.097526	0.205088	9991.084961
4806.218450	0.097511	0.205088	10079.429687
4806.219313	0.097518	0.205088	10163.587891
4806.220393	0.097625	0.205088	10269.022461
4807.274466	1.041588	0.191158	479.130554
4807.275349	1.476753	0.191158	1783.103516
4807.276317	1.471498	0.191158	3207.513184
4807.277374	1.431365	0.191158	4720.465820
4807.278304	1.395300	0.191158	6018.095215
4807.279172	1.362242	0.191158	7200.521484
4807.280281	1.324457	0.191158	8669.343750
4807.281260	0.680076	0.191158	9335.137695
4807.282195	0.102437	0.191158	9430.916016
4807.283073	0.097416	0.191158	9516.447266
4807.284089	0.097551	0.191158	9615.559570
4807.284998	0.097471	0.191158	9704.160156
4807.285911	0.097529	0.191158	9793.204102
4807.286768	0.097584	0.191158	9876.833984
4807.287803	0.097452	0.191158	9977.697266
4807.288682	0.097518	0.191158	10063.416016
4807.289551	0.097515	0.191158	10148.156250
4807.290528	0.097584	0.191158	10243.496094
4808.272314	0.998683	0.205576	424.440216
4808.273381	1.480301	0.205576	2003.921875
4808.274391	1.464877	0.205576	3483.447266
4808.275264	1.430870	0.205576	4732.597168
4808.276248	1.393506	0.205576	6103.807129
4808.277302	1.354834	0.205576	7531.802246
4808.278216	1.322307	0.205576	8740.390625
4808.279095	0.733319	0.205576	9384.978516
4808.280191	0.100844	0.205576	9495.502930
4808.281154	0.097390	0.205576	9589.290039
4808.282035	0.097343	0.205576	9675.048828
4808.283032	0.097654	0.205576	9772.410156
4808.284096	0.097456	0.205576	9876.103516
4808.284986	0.097533	0.205576	9962.908203
4808.285868	0.097573	0.205576	10048.967773
4808.286961	0.097588	0.205576	10155.630859
4808.287928	0.097383	0.205576	10249.799805
4808.288793	0.097463	0.205576	10334.105469
4809.343029	1.098289	0.189531	584.289490
4809.344085	1.484319	0.189531	2151.730225
4809.344986	1.465023	0.189531	3471.716064
4809.345865	1.431116	0.189531	4729.666992
4809.346811	1.394989	0.189531	6049.326660
4809.347806	1.358624	0.189531	7401.157715
4809.348732	1.325629	0.189531	8628.689453
4809.349608	0.880789	0.189531	9400.259766
4809.350626	0.112742	0.189531	9515.031250
4809.351498	0.097332	0.189531	9599.904297
4809.352380	0.097482	0.189531	9685.882812
4809.353240	0.097427	0.189531	9769.669922
4809.354309	0.097430	0.189531	9873.823242
4809.355199	0.097570	0.189531	9960.660156
4809.356071	0.097478	0.189531	10045.661133
4809.357056	0.097621	0.189531	10141.817383
4809.358010	0.097518	0.189531	10234.849609
4809.358884	0.097533	0.189531	10320.093750
4810.342361	1.017539	0.206212	462.980255
4810.343445	1.481821	0.206212	2069.274658
4810.344401	1.465122	0.206212	3469.931396
4810.345265	1.431475	0.206212	4706.725586
4810.346317	1.391455	0.206212	6170.536133
4810.347344	1.353607	0.206212	7560.690430
4810.348228	1.322695	0.206212	8729.953125
4810.349192	0.688444	0.206212	9393.612305
4810.350262	0.099891	0.206212	9500.496094
4810.351184	0.097416	0.206212	9590.313477
4810.352051	0.097438	0.206212	9674.791992
4810.353079	0.097511	0.206212	9775.033203
4810.354091	0.097365	0.206212	9873.566406
4810.354976	0.097383	0.206212	9959.750000
4810.355931	0.097390	0.206212	10052.757812
4810.356976	0.097573	0.206212	10154.721680
4810.357906	0.097412	0.206212	10245.314453
4810.358768	0.097474	0.206212	10329.336914
4811.411395	0.997207	0.190111	426.804626
4811.412321	1.472772	0.190111	1790.591797
4811.413405	1.466968	0.190111	3380.784668
4811.414352	1.430885	0.190111	4735.833008
4811.415216	1.396999	0.190111	5942.840820
4811.416262	1.358262	0.190111	7363.582520
4811.417308	1.322040	0.190111	8746.436523
4811.418197	0.730155	0.190111	9395.543945
4811.419156	0.107351	0.190111	9498.493164
4811.420220	0.097533	0.190111	9602.268555
4811.421144	0.097526	0.190111	9692.381836
4811.422008	0.097573	0.190111	9776.685547
4811.423074	0.097625	0.190111	9880.752930
4811.424071	0.097573	0.190111	9978.033203
4811.424961	0.097489	0.190111	10064.798828
4811.425935	0.097701	0.190111	10159.959961
4811.426990	0.097595	0.190111	10262.922852
4811.427896	0.097577	0.190111	10351.327148
4812.413501	1.101552	0.205128	612.462646
4812.414424	1.482850	0.205128	1981.133545
4812.415351	1.468107	0.205128	3342.068359
4812.416222	1.433690	0.205128	4590.812500
4812.417275	1.394553	0.205128	6059.276855
4812.418152	1.361807	0.205128	7253.581055
4812.419026	1.330898	0.205128	8416.786133
4812.420034	0.894752	0.205128	9318.696289
4812.420955	0.116682	0.205128	9426.160156
4812.421831	0.097372	0.205128	9511.458008
4812.422788	0.097595	0.205128	9604.856445
4812.423821	0.097522	0.205128	9705.596680
4812.424716	0.097544	0.205128	9792.898437
4812.425581	0.097537	0.205128	9877.267578
4812.426654	0.097489	0.205128	9981.873047
4812.427597	0.097445	0.205128	10073.763672
4812.428474	0.097500	0.205128	10159.271484
4812.429404	0.097537	0.205128	10249.980469
4813.477816	0.988879	0.190771	416.318237
4813.478715	1.472289	0.190771	1739.905884
4813.479814	1.467488	0.190771	3352.675049
4813.480765	1.431134	0.190771	4713.683594
4813.481640	1.397362	0.190771	5936.375488
4813.482696	1.358529	0.190771	7370.981934
4813.483732	1.322479	0.190771	8741.070312
4813.484627	0.729071	0.190771	9393.588867
4813.485584	0.107150	0.190771	9496.130859
4813.486640	0.097544	0.190771	9599.137695
4813.487568	0.097419	0.190771	9689.542969
4813.488425	0.097559	0.190771	9773.150391
4813.489497	0.097643	0.190771	9877.823242
4813.490497	0.097588	0.190771	9975.411133
4813.491373	0.097467	0.190771	10060.791992
4813.492346	0.097654	0.190771	10155.809570
4813.493406	0.097511	0.190771	10259.170898
4813.494319	0.097606	0.190771	10348.285156
4814.484923	0.995526	0.200802	422.103058
4814.485980	1.479445	0.200802	1985.875977
4814.487010	1.464635	0.200802	3494.450195
4814.487890	1.430380	0.200802	4753.184570
4814.488878	1.393363	0.200802	6129.827148
4814.489944	1.353816	0.200802	7572.995117
4814.490861	1.320773	0.200802	8784.143555
4814.491730	0.716257	0.200802	9406.571289
4814.492786	0.101327	0.200802	9513.572266
4814.493791	0.097397	0.200802	9611.457031
4814.494681	0.097427	0.200802	9698.166992
4814.495663	0.097537	0.200802	9793.948242
4814.496700	0.097537	0.200802	9895.093750
4814.497609	0.097471	0.200802	9983.694336
4814.498473	0.097562	0.200802	10067.988281
4814.499583	0.097584	0.200802	10176.306641
4814.500544	0.097427	0.200802	10269.933594
4814.501428	0.097522	0.200802	10356.142578
4815.545352	1.030719	0.193986	518.451599
4815.546414	1.482934	0.193986	2093.328125
4815.547358	1.464562	0.193986	3475.874512
4815.548222	1.430193	0.193986	4711.561035
4815.549303	1.389503	0.193986	6213.613770
4815.550302	1.352714	0.193986	7564.974609
4815.551195	1.321893	0.193986	8745.425781
4815.552180	0.630055	0.193986	9366.030273
4815.553219	0.099595	0.193986	9469.508789
4815.554124	0.097467	0.193986	9557.716797
4815.554982	0.097460	0.193986	9641.336914
4815.556065	0.097507	0.193986	9746.937500
4815.557055	0.097529	0.193986	9843.491211
4815.557929	0.097430	0.193986	9928.645508
4815.558929	0.097679	0.193986	10026.325195
4815.559987	0.097518	0.193986	10129.500000
4815.560861	0.097482	0.193986	10214.699219
4815.561731	0.097555	0.193986	10299.572266
4816.556563	1.070054	0.200379	541.447144
4816.557451	1.479891	0.200379	1855.590576
4816.558325	1.470747	0.200379	3141.023437
4816.559440	1.430215	0.200379	4735.712891
4816.560414	1.392883	0.200379	6092.381348
4816.561287	1.360734	0.200379	7280.301758
4816.562316	1.324794	0.200379	8643.514648
4816.563367	0.627250	0.200379	9302.753906
4816.564257	0.102048	0.200379	9393.577148
4816.565188	0.097562	0.200379	9484.407227
4816.566251	0.097639	0.200379	9588.197266
4816.567201	0.097581	0.200379	9680.898437
4816.568066	0.097522	0.200379	9765.254883
4816.569119	0.097705	0.200379	9868.138672
4816.570125	0.097529	0.200379	9966.252930
4816.571010	0.097606	0.200379	10052.634766
4816.571970	0.097668	0.200379	10146.396484
4816.573020	0.097548	0.200379	10248.821289
4817.612830	1.073705	0.194337	548.663147
4817.613759	1.481294	0.194337	1924.785400
4817.614620	1.471044	0.194337	3191.354004
4817.615692	1.431028	0.194337	4725.416016
4817.616713	1.391880	0.194337	6146.525391
4817.617586	1.358910	0.194337	7332.853516
4817.618555	1.325596	0.194337	8617.355469
4817.619625	0.627187	0.194337	9288.446289
4817.620546	0.101294	0.194337	9381.738281
4817.621412	0.097375	0.194337	9466.065430
4817.622494	0.097529	0.194337	9571.591797
4817.623503	0.097504	0.194337	9669.972656
4817.624392	0.097559	0.194337	9756.702148
4817.625379	0.097537	0.194337	9852.970703
4817.626428	0.097548	0.194337	9955.297852
4817.627326	0.097365	0.194337	10042.731445
4817.628189	0.097548	0.194337	10126.915039
4817.629305	0.097544	0.194337	10235.774414
4818.626066	1.066520	0.201422	543.925049
4818.627004	1.481880	0.201422	1933.928345
4818.627871	1.470677	0.201422	3209.005859
4818.628933	1.430687	0.201422	4728.395508
4818.629950	1.391730	0.201422	6143.784668
4818.630845	1.358595	0.201422	7359.727051
4818.631820	1.325394	0.201422	8651.986328
4818.632870	0.633142	0.201422	9316.785156
4818.633788	0.101664	0.201422	9410.112305
4818.634647	0.097394	0.201422	9493.773437
4818.635727	0.097537	0.201422	9599.113281
4818.636724	0.097493	0.201422	9696.313477
4818.637595	0.097493	0.201422	9781.229492
4818.638585	0.097621	0.201422	9877.874023
4818.639651	0.097614	0.201422	9981.929687
4818.640531	0.097463	0.201422	10067.697266
4818.641394	0.097500	0.201422	10151.839844
4818.642497	0.097650	0.201422	10259.547852
4819.680708	1.000287	0.197890	433.124237
4819.681580	1.473241	0.197890	1717.790405
4819.682443	1.475222	0.197890	2990.907227
4819.683428	1.439480	0.197890	4408.794922
4819.684361	1.403346	0.197890	5718.116699
4819.685246	1.370654	0.197890	6931.145508
4819.686279	1.333912	0.197890	8309.077148
4819.687184	1.109868	0.197890	9313.507812
4819.688061	0.169570	0.197890	9462.220703
4819.688934	0.097592	0.197890	9547.417969
4819.689983	0.097581	0.197890	9649.780273
4819.690869	0.097592	0.197890	9736.246094
4819.691735	0.097529	0.197890	9820.706055
4819.692741	0.097588	0.197890	9918.879883
4819.693638	0.097496	0.197890	10006.333984
4819.694552	0.097456	0.197890	10095.409180
4819.695430	0.097474	0.197890	10180.991211
4819.696467	0.097485	0.197890	10282.083984
4820.697027	1.009307	0.203291	438.039032
4820.697894	1.473300	0.203291	1715.389893
4820.699024	1.466931	0.203291	3373.021973
4820.699986	1.430303	0.203291	4748.973145
4820.700904	1.394839	0.203291	6029.435059
4820.701782	1.362169	0.203291	7225.419922
4820.702831	1.326552	0.203291	8616.972656
4820.703743	0.845808	0.203291	9388.349609
4820.704619	0.115309	0.203291	9489.360352
4820.705497	0.097493	0.203291	9574.958984
4820.706551	0.097548	0.203291	9677.774414
4820.707435	0.097526	0.203291	9763.987305
4820.708296	0.097463	0.203291	9847.903320
4820.709279	0.097581	0.203291	9943.825195
4820.710204	0.097405	0.203291	10033.924805
4820.711114	0.097438	0.203291	10122.592773
4820.711985	0.097555	0.203291	10207.563477
4820.713016	0.097518	0.203291	10308.104492
4821.748806	1.118844	0.199062	633.265747
4821.749790	1.484524	0.199062	2094.037109
4821.750672	1.467239	0.199062	3388.141602
4821.751696	1.428662	0.199062	4851.091797
4821.752748	1.388610	0.199062	6311.909180
4821.753630	1.355226	0.199062	7507.218262
4821.754519	1.322882	0.199062	8683.260742
4821.755624	0.559457	0.199062	9301.460937
4821.756581	0.099283	0.199062	9396.475586
4821.757441	0.097478	0.199062	9480.306641
4821.758474	0.097632	0.199062	9581.160156
4821.759525	0.097581	0.199062	9683.717773
4821.760394	0.097489	0.199062	9768.435547
4821.761321	0.097621	0.199062	9858.929687
4821.762391	0.097592	0.199062	9963.352539
4821.763335	0.097529	0.199062	10055.419922
4821.764200	0.097625	0.199062	10139.865234
4821.765239	0.097570	0.199062	10241.240234
4822.766073	1.046807	0.207445	508.748047
4822.766950	1.477606	0.207445	1804.608643
4822.767821	1.473647	0.207445	3088.155762
4822.768865	1.434434	0.207445	4585.704590
4822.769836	1.396989	0.207445	5942.180664
4822.770704	1.365165	0.207445	7127.143555
4822.771745	1.327987	0.207445	8509.578125
4822.772776	0.780450	0.207445	9314.222656
4822.773669	0.108234	0.207445	9410.875000
4822.774607	0.097507	0.207445	9502.336914
4822.775666	0.097595	0.207445	9605.690430
4822.776606	0.097496	0.207445	9697.336914
4822.777465	0.097474	0.207445	9781.067383
4822.778531	0.097584	0.207445	9885.091797
4822.779538	0.097474	0.207445	9983.248047
4822.780415	0.097471	0.207445	10068.729492
4822.781397	0.097588	0.207445	10164.560547
4822.782442	0.097489	0.207445	10266.436523
4823.818300	1.106550	0.199408	605.282959
4823.819346	1.484377	0.199408	2157.941650
4823.820229	1.465334	0.199408	3451.832031
4823.821167	1.429175	0.199408	4792.397949
4823.822243	1.388496	0.199408	6286.419922
4823.823162	1.354050	0.199408	7530.791992
4823.824035	1.323080	0.199408	8685.840820
4823.825090	0.593470	0.199408	9311.952148
4823.826109	0.099045	0.199408	9412.879883
4823.826991	0.097493	0.199408	9498.868164
4823.827974	0.097650	0.199408	9594.858398
4823.829026	0.097522	0.199408	9697.451172
4823.829938	0.097636	0.199408	9786.495117
4823.830797	0.097573	0.199408	9870.310547
4823.831893	0.097581	0.199408	9977.258789
4823.832873	0.097515	0.199408	10072.823242
4823.833761	0.097540	0.199408	10159.439453
4823.834747	0.097764	0.199408	10255.833984
4824.834613	1.086742	0.208677	596.621338
4824.835679	1.484110	0.208677	2178.682617
4824.836587	1.463665	0.208677	3507.689941
4824.837459	1.428571	0.208677	4753.403320
4824.838559	1.387800	0.208677	6279.983398
4824.839535	1.352626	0.208677	7600.145996
4824.840410	1.321263	0.208677	8756.251953
4824.841493	0.508055	0.208677	9306.475586
4824.842536	0.098163	0.208677	9408.859375
4824.843432	0.097467	0.208677	9496.189453
4824.844364	0.097460	0.208677	9587.021484
4824.845425	0.097581	0.208677	9690.554687
4824.846351	0.097445	0.208677	9780.789062
4824.847209	0.097452	0.208677	9864.403320
4824.848268	0.097504	0.208677	9967.660156
4824.849285	0.097500	0.208677	10066.817383
4824.850164	0.097456	0.208677	10152.481445
4824.851129	0.097559	0.208677	10246.625000
4825.888309	1.106719	0.198860	593.201294
4825.889317	1.484308	0.198860	2089.383545
4825.890203	1.467048	0.198860	3389.188477
4825.891217	1.428834	0.198860	4838.026367
4825.892267	1.388313	0.198860	6295.754883
4825.893165	1.355090	0.198860	7512.625977
4825.894031	1.322791	0.198860	8658.162109
4825.895138	0.578401	0.198860	9298.452148
4825.896106	0.099181	0.198860	9394.458984
4825.896961	0.097511	0.198860	9477.831055
4825.898050	0.097676	0.198860	9584.200195
4825.899109	0.097474	0.198860	9687.425781
4825.899981	0.097511	0.198860	9772.455078
4825.900914	0.097581	0.198860	9863.498047
4825.901977	0.097463	0.198860	9967.101562
4825.902913	0.097460	0.198860	10058.324219
4825.903824	0.097496	0.198860	10147.143555
4825.904696	0.097511	0.198860	10232.172852
4826.903485	0.998987	0.210369	425.568390
4826.904489	1.476460	0.210369	1907.934204
4826.905557	1.465345	0.210369	3472.923096
4826.906444	1.430233	0.210369	4741.540039
4826.907334	1.394985	0.210369	5983.077148
4826.908438	1.355684	0.210369	7479.751953
4826.909411	1.321069	0.210369	8765.152344
4826.910283	0.740369	0.210369	9410.753906
4826.911329	0.102517	0.210369	9517.986328
4826.912344	0.097522	0.210369	9616.970703
4826.913230	0.097522	0.210369	9703.375000
4826.914158	0.097548	0.210369	9793.899414
4826.915226	0.097540	0.210369	9898.072266
4826.916158	0.097504	0.210369	9988.945312
4826.917017	0.097529	0.210369	10072.722656
4826.918061	0.097654	0.210369	10174.672852
4826.919090	0.097452	0.210369	10274.951172
4826.919965	0.097672	0.210369	10360.414062
4827.958265	1.026790	0.199972	502.100098
4827.959266	1.482048	0.199972	1985.630493
4827.960143	1.469462	0.199972	3274.348389
4827.961026	1.434415	0.199972	4540.937012
4827.962125	1.394370	0.199972	6073.349609
4827.963003	1.361316	0.199972	7268.584961
4827.963864	1.331008	0.199972	8414.583008
4827.964920	0.816775	0.199972	9277.097656
4827.965895	0.106527	0.199972	9380.961914
4827.966767	0.097551	0.199972	9466.026367
4827.967624	0.097606	0.199972	9549.674805
4827.968739	0.097581	0.199972	9658.477539
4827.969641	0.097504	0.199972	9746.425781
4827.970518	0.097628	0.199972	9832.045898
4827.971502	0.097679	0.199972	9928.162109
4827.972499	0.097537	0.199972	10025.406250
4827.973391	0.097606	0.199972	10112.470703
4827.974392	0.097665	0.199972	10210.233398
4828.970432	1.005044	0.211066	432.168915
4828.971296	1.472527	0.211066	1704.432251
4828.972361	1.469667	0.211066	3269.627441
4828.973261	1.435258	0.211066	4561.359375
4828.974143	1.401138	0.211066	5797.163086
4828.975174	1.363883	0.211066	7203.326660
4828.976105	1.329719	0.211066	8441.294922
4828.976989	1.027266	0.211066	9349.397461
4828.978005	0.141075	0.211066	9492.730469
4828.979006	0.097478	0.211066	9590.305664
4828.979887	0.097416	0.211066	9676.128906
4828.980743	0.097496	0.211066	9759.585937
4828.981832	0.097496	0.211066	9865.759766
4828.982727	0.097507	0.211066	9953.029297
4828.983608	0.097559	0.211066	10038.978516
4828.984590	0.097584	0.211066	10134.806641
4828.985597	0.097456	0.211066	10232.945312
4828.986487	0.097445	0.211066	10319.671875
4830.028781	1.052113	0.201052	499.753693
4830.029656	1.476984	0.201052	1792.114258
4830.030624	1.470952	0.201052	3215.996094
4830.031687	1.430790	0.201052	4736.925781
4830.032613	1.394919	0.201052	6028.621094
4830.033489	1.361821	0.201052	7221.576660
4830.034573	1.324189	0.201052	8656.998047
4830.035584	0.662227	0.201052	9326.508789
4830.036473	0.103400	0.201052	9418.430664
4830.037456	0.097566	0.201052	9514.337891
4830.038510	0.097500	0.201052	9617.102539
4830.039421	0.097529	0.201052	9705.952148
4830.040281	0.097529	0.201052	9789.827148
4830.041372	0.097654	0.201052	9896.367187
4830.042342	0.097485	0.201052	9990.927734
4830.043202	0.097537	0.201052	10074.809570
4830.044214	0.097650	0.201052	10173.631836
4830.045258	0.097500	0.201052	10275.421875
4831.037498	1.113208	0.212009	610.037964
4831.038555	1.483916	0.212009	2178.537109
4831.039440	1.464668	0.212009	3474.768066
4831.040376	1.428680	0.212009	4812.012695
4831.041440	1.387694	0.212009	6288.519531
4831.042394	1.353113	0.212009	7579.389160
4831.043268	1.322249	0.212009	8735.034180
4831.044307	0.576145	0.212009	9333.648437
4831.045344	0.098683	0.212009	9435.982422
4831.046236	0.097478	0.212009	9522.932617
4831.047194	0.097603	0.212009	9616.435547
4831.048249	0.097449	0.212009	9719.244141
4831.049172	0.097441	0.212009	9809.182617
4831.050032	0.097485	0.212009	9893.020508
4831.051107	0.097657	0.212009	9998.001953
4831.052111	0.097434	0.212009	10095.826172
4831.053001	0.097467	0.212009	10182.572266
4831.053988	0.097694	0.212009	10278.996094
4832.099772	0.995061	0.198893	420.910858
4832.100826	1.479225	0.198893	1980.013794
4832.101855	1.464514	0.198893	3486.998779
4832.102740	1.430259	0.198893	4752.777832
4832.103713	1.393634	0.198893	6108.783691
4832.104787	1.353962	0.198893	7562.939453
4832.105709	1.321044	0.198893	8780.941406
4832.106577	0.723314	0.198893	9408.778320
4832.107650	0.101367	0.198893	9517.544922
4832.108661	0.097588	0.198893	9616.206055
4832.109543	0.097518	0.198893	9702.216797
4832.110452	0.097511	0.198893	9790.854492
4832.111327	0.097592	0.198893	9876.247070
4832.112325	0.097463	0.198893	9973.515625
4832.113245	0.097452	0.198893	10063.171875
4832.114124	0.097540	0.198893	10148.910156
4832.115176	0.097478	0.198893	10251.457031
4832.116065	0.097456	0.198893	10338.095703
4833.106365	0.994336	0.213455	422.592773
4833.107409	1.478947	0.213455	1966.613037
4833.108445	1.464529	0.213455	3483.864746
4833.109328	1.430347	0.213455	4746.860840
4833.110288	1.393770	0.213455	6084.879395
4833.111369	1.354263	0.213455	7548.837402
4833.112278	1.321289	0.213455	8749.888672
4833.113147	0.750992	0.213455	9402.500977
4833.114195	0.102345	0.213455	9509.758789
4833.115216	0.097478	0.213455	9609.284180
4833.116104	0.097482	0.213455	9695.847656
4833.117077	0.097526	0.213455	9790.740234
4833.118122	0.097584	0.213455	9892.715820
4833.119034	0.097460	0.213455	9981.598633
4833.119898	0.097533	0.213455	10065.867187
4833.120994	0.097504	0.213455	10172.731445
4833.121993	0.097463	0.213455	10270.097656
4833.122887	0.097496	0.213455	10357.259766
4834.170296	1.008655	0.198260	422.626373
4834.171394	1.481931	0.198260	2049.786621
4834.172304	1.467052	0.198260	3384.804199
4834.173176	1.431969	0.198260	4633.480957
4834.174279	1.391184	0.198260	6167.957031
4834.175243	1.355398	0.198260	7474.560547
4834.176128	1.324713	0.198260	8646.931641
4834.177151	0.678446	0.198260	9340.981445
4834.178200	0.100320	0.198260	9446.216797
4834.179085	0.097482	0.198260	9532.488281
4834.179965	0.097496	0.198260	9618.285156
4834.181081	0.097526	0.198260	9727.124023
4834.182039	0.097496	0.198260	9820.525391
4834.182899	0.097438	0.198260	9904.322266
4834.183965	0.097581	0.198260	10008.342773
4834.184982	0.097588	0.198260	10107.589844
4834.185866	0.097504	0.198260	10193.783203
4834.186816	0.097614	0.198260	10286.515625
4835.174908	1.065663	0.214490	512.583862
4835.175807	1.478639	0.214490	1841.880249
4835.176678	1.472395	0.214490	3124.336426
4835.177763	1.432299	0.214490	4678.380371
4835.178709	1.395593	0.214490	5998.611328
4835.179587	1.363206	0.214490	7195.505859
4835.180553	1.329360	0.214490	8479.667969
4835.181579	0.822927	0.214490	9323.991211
4835.182456	0.113804	0.214490	9423.796875
4835.183315	0.097361	0.214490	9507.429687
4835.184394	0.097441	0.214490	9612.569336
4835.185325	0.097500	0.214490	9703.341797
4835.186190	0.097474	0.214490	9787.657227
4835.187118	0.097460	0.214490	9878.099609
4835.188167	0.097478	0.214490	9980.354492
4835.189057	0.097375	0.214490	10067.018555
4835.189988	0.097621	0.214490	10157.903320
4835.191041	0.097416	0.214490	10260.482422
4836.239851	1.020011	0.199328	482.465240
4836.240933	1.482517	0.199328	2086.548828
4836.241892	1.464166	0.199328	3490.684082
4836.242759	1.429940	0.199328	4730.442383
4836.243828	1.389529	0.199328	6215.848633
4836.244843	1.352545	0.199328	7588.682129
4836.245730	1.321245	0.199328	8760.626953
4836.246714	0.632040	0.199328	9382.553711
4836.247754	0.099694	0.199328	9486.235352
4836.248671	0.097507	0.199328	9575.649414
4836.249534	0.097518	0.199328	9659.807617
4836.250619	0.097577	0.199328	9765.678711
4836.251617	0.097365	0.199328	9862.848633
4836.252487	0.097507	0.199328	9947.679687
4836.253466	0.097570	0.199328	10043.200195
4836.254534	0.097577	0.199328	10147.412109
4836.255422	0.097460	0.199328	10233.956055
4836.256284	0.097526	0.199328	10318.023437
4837.242313	1.006520	0.214861	430.790466
4837.243292	1.474241	0.214861	1874.072021
4837.244344	1.465865	0.214861	3416.162598
4837.245262	1.430508	0.214861	4729.368652
4837.246126	1.395956	0.214861	5935.474609
4837.247219	1.357192	0.214861	7418.885742
4837.248219	1.321926	0.214861	8740.812500
4837.249098	0.748546	0.214861	9398.784180
4837.250086	0.107117	0.214861	9504.615234
4837.251152	0.097493	0.214861	9608.541992
4837.252031	0.097526	0.214861	9694.266602
4837.252899	0.097493	0.214861	9778.890625
4837.254008	0.097540	0.214861	9887.062500
4837.254978	0.097434	0.214861	9981.573242
4837.255842	0.097416	0.214861	10065.740234
4837.256885	0.097636	0.214861	10167.574219
4837.257942	0.097518	0.214861	10270.651367
4837.258835	0.097573	0.214861	10357.784180
4838.308795	0.994786	0.199025	423.778961
4838.309667	1.473109	0.199025	1708.330078
4838.310630	1.473303	0.199025	3127.121094
4838.311613	1.436224	0.199025	4538.929687
4838.312491	1.401617	0.199025	5769.549805
4838.313410	1.367344	0.199025	7026.138672
4838.314490	1.329836	0.199025	8462.362305
4838.315374	1.012075	0.199025	9357.037109
4838.316233	0.144631	0.199025	9481.275391
4838.317280	0.097577	0.199025	9583.438477
4838.318238	0.097588	0.199025	9676.927734
4838.319099	0.097577	0.199025	9760.941406
4838.319964	0.097540	0.199025	9845.313477
4838.321088	0.097562	0.199025	9954.973633
4838.321982	0.097489	0.199025	10042.128906
4838.322847	0.097500	0.199025	10126.466797
4838.323880	0.097683	0.199025	10227.373047
4838.324848	0.097614	0.199025	10321.863281
4839.311316	1.026691	0.214776	455.850616
4839.312203	1.475636	0.214776	1764.739746
4839.313080	1.474431	0.214776	3057.815918
4839.314102	1.437100	0.214776	4526.531738
4839.315026	1.400178	0.214776	5820.296387
4839.315962	1.365945	0.214776	7098.820801
4839.316830	1.333945	0.214776	8256.685547
4839.317879	1.002554	0.214776	9308.364258
4839.318754	0.139742	0.214776	9430.638672
4839.319627	0.097445	0.214776	9515.708008
4839.320590	0.097592	0.214776	9609.688477
4839.321538	0.097467	0.214776	9702.086914
4839.322453	0.097471	0.214776	9791.272461
4839.323331	0.097478	0.214776	9876.858398
4839.324378	0.097467	0.214776	9978.906250
4839.325273	0.097449	0.214776	10066.123047
4839.326134	0.097559	0.214776	10150.121094
4839.327185	0.097614	0.214776	10252.712891
4840.378324	1.026987	0.200157	452.901398
4840.379192	1.473779	0.200157	1732.141724
4840.380303	1.467129	0.200157	3362.122070
4840.381295	1.428831	0.200157	4779.521973
4840.382178	1.395077	0.200157	6011.375000
4840.383180	1.358613	0.200157	7372.705566
4840.384245	1.321604	0.200157	8780.213867
4840.385127	0.709559	0.200157	9406.044922
4840.386008	0.106681	0.200157	9500.031250
4840.387107	0.097555	0.200157	9607.244141
4840.388054	0.097518	0.200157	9699.593750
4840.388911	0.097504	0.200157	9783.154297
4840.389937	0.097683	0.200157	9883.376953
4840.390984	0.097562	0.200157	9985.524414
4840.391878	0.097548	0.200157	10072.732422
4840.392812	0.097599	0.200157	10163.889648
4840.393880	0.097617	0.200157	10268.144531
4840.394822	0.097518	0.200157	10360.006836
4841.380867	1.058350	0.214466	519.649658
4841.381746	1.477987	0.214466	1818.800293
4841.382677	1.471168	0.214466	3188.458008
4841.383740	1.431204	0.214466	4709.827148
4841.384691	1.394436	0.214466	6035.935547
4841.385554	1.361880	0.214466	7211.237793
4841.386633	1.324713	0.214466	8640.603516
4841.387659	0.668104	0.214466	9326.078125
4841.388525	0.104055	0.214466	9416.189453
4841.389477	0.097573	0.214466	9509.079102
4841.390528	0.097562	0.214466	9611.617187
4841.391454	0.097665	0.214466	9702.054687
4841.392321	0.097628	0.214466	9786.698242
4841.393401	0.097683	0.214466	9892.196289
4841.394409	0.097551	0.214466	9990.528320
4841.395297	0.097504	0.214466	10077.111328
4841.396270	0.097559	0.214466	10172.036133
4841.397327	0.097683	0.214466	10275.287109
4842.446264	0.992443	0.200560	417.818329
4842.447332	1.480551	0.200560	1999.046265
4842.448233	1.468506	0.200560	3322.169922
4842.449109	1.434730	0.200560	4578.993652
4842.449992	1.399669	0.200560	5814.901367
4842.451043	1.361451	0.200560	7245.786621
4842.451930	1.330199	0.200560	8425.672852
4842.452801	1.060540	0.200560	9349.402344
4842.453834	0.140933	0.200560	9494.985352
4842.454726	0.097390	0.200560	9581.857422
4842.455639	0.097504	0.200560	9670.877930
4842.456515	0.097595	0.200560	9756.371094
4842.457549	0.097452	0.200560	9857.136719
4842.458442	0.097412	0.200560	9944.125977
4842.459302	0.097482	0.200560	10027.959961
4842.460369	0.097511	0.200560	10132.003906
4842.461307	0.097383	0.200560	10223.348633
4842.462186	0.097390	0.200560	10308.954102
4843.450843	1.031107	0.217064	469.153778
4843.451729	1.475808	0.217064	1776.719727
4843.452602	1.474387	0.217064	3063.859863
4843.453616	1.437396	0.217064	4521.379883
4843.454555	1.400039	0.217064	5836.016602
4843.455487	1.365890	0.217064	7109.025879
4843.456350	1.334070	0.217064	8260.328125
4843.457405	1.011057	0.217064	9326.993164
4843.458294	0.141097	0.217064	9452.428711
4843.459173	0.097335	0.217064	9537.986328
4843.460126	0.097548	0.217064	9630.949219
4843.461093	0.097544	0.217064	9725.274414
4843.462007	0.097496	0.217064	9814.385742
4843.462882	0.097493	0.217064	9899.691406
4843.463927	0.097526	0.217064	10001.605469
4843.464818	0.097474	0.217064	10088.455078
4843.465676	0.097515	0.217064	10172.123047
4843.466736	0.097592	0.217064	10275.570312
4844.515254	0.993882	0.200979	419.418152
4844.516293	1.479075	0.200979	1956.176758
4844.517318	1.464803	0.200979	3457.600342
4844.518216	1.430094	0.200979	4741.824707
4844.519191	1.393440	0.200979	6100.428711
4844.520243	1.354611	0.200979	7525.479004
4844.521175	1.321582	0.200979	8757.193359
4844.522050	0.732096	0.200979	9397.777344
4844.523141	0.100840	0.200979	9507.793945
4844.524131	0.097515	0.200979	9604.333008
4844.525018	0.097555	0.200979	9690.864258
4844.526002	0.097632	0.200979	9786.933594
4844.527063	0.097650	0.200979	9890.540039
4844.527962	0.097566	0.200979	9978.251953
4844.528821	0.097632	0.200979	10062.118164
4844.529920	0.097734	0.200979	10169.528320
4844.530895	0.097456	0.200979	10264.547852
4844.531753	0.097526	0.200979	10348.224609
4845.521344	0.993523	0.214808	423.240784
4845.522263	1.472421	0.214808	1776.395508
4845.523346	1.466957	0.214808	3365.109619
4845.524289	1.430940	0.214808	4714.486328
4845.525151	1.397369	0.214808	5919.018555
4845.526201	1.358430	0.214808	7345.370117
4845.527234	1.322545	0.214808	8711.559570
4845.528127	0.756310	0.214808	9386.944336
4845.529097	0.108226	0.214808	9491.923828
4845.530160	0.097507	0.214808	9595.574219
4845.531074	0.097584	0.214808	9684.766602
4845.531940	0.097562	0.214808	9769.255859
4845.533018	0.097665	0.214808	9874.538086
4845.534022	0.097573	0.214808	9972.501953
4845.534909	0.097544	0.214808	10059.023437
4845.535881	0.097599	0.214808	10153.889648
4845.536933	0.097687	0.214808	10256.656250
4845.537837	0.097544	0.214808	10344.835937
4846.584769	1.002989	0.201511	430.282471
4846.585644	1.473435	0.201511	1719.538086
4846.586647	1.471677	0.201511	3195.630371
4846.587591	1.435499	0.201511	4550.741699
4846.588516	1.399995	0.201511	5845.737305
4846.589385	1.367538	0.201511	7034.127930
4846.590429	1.331107	0.201511	8423.803711
4846.591313	1.036868	0.201511	9340.394531
4846.592181	0.150773	0.201511	9471.265625
4846.593229	0.097507	0.201511	9573.453125
4846.594174	0.097449	0.201511	9665.541992
4846.595052	0.097511	0.201511	9751.156250
4846.595993	0.097577	0.201511	9842.976562
4846.597041	0.097588	0.201511	9945.249023
4846.597932	0.097478	0.201511	10032.101562
4846.598792	0.097478	0.201511	10115.932617
4846.599847	0.097544	0.201511	10218.841797
4846.600802	0.097515	0.201511	10311.968750
4847.591374	1.020861	0.216565	451.220367
4847.592247	1.474072	0.216565	1738.085449
4847.593251	1.471003	0.216565	3214.972900
4847.594176	1.435627	0.216565	4542.928223
4847.595056	1.401515	0.216565	5776.261230
4847.596029	1.365784	0.216565	7105.168945
4847.597066	1.328562	0.216565	8482.887695
4847.597958	0.984309	0.216565	9360.891602
4847.598819	0.137618	0.216565	9479.380859
4847.599896	0.097467	0.216565	9584.352539
4847.600819	0.097478	0.216565	9674.325195
4847.601695	0.097504	0.216565	9759.738281
4847.602660	0.097566	0.216565	9853.889648
4847.603685	0.097511	0.216565	9953.838867
4847.604578	0.097559	0.216565	10040.958984
4847.605437	0.097529	0.216565	10124.736328
4847.606503	0.097584	0.216565	10228.760742
4847.607435	0.097562	0.216565	10319.688477
4848.652376	1.126890	0.202224	658.103516
4848.653431	1.484187	0.202224	2223.920898
4848.654319	1.463408	0.202224	3523.427246
4848.655218	1.427644	0.202224	4806.879395
4848.656322	1.386757	0.202224	6337.858398
4848.657272	1.352164	0.202224	7622.414551
4848.658138	1.321293	0.202224	8766.654297
4848.659184	0.535334	0.202224	9326.614258
4848.660242	0.098298	0.202224	9430.614258
4848.661110	0.097507	0.202224	9515.250977
4848.662066	0.097570	0.202224	9608.527344
4848.663118	0.097551	0.202224	9711.151367
4848.664049	0.097507	0.202224	9801.930664
4848.664911	0.097537	0.202224	9886.006836
4848.665972	0.097507	0.202224	9989.461914
4848.666978	0.097496	0.202224	10087.542969
4848.667866	0.097614	0.202224	10174.223633
4848.668836	0.097606	0.202224	10268.901367
